SampleIdent               : Muestra3_JGR_190224-2
TimeMeasured              : 19/02/2024 13:45:13
Application               : <Omnian>
ConditionSet              : Omnian
Instrument                : Epsilon3
InstrumentSerial          : 3060 (M-3060)
TubeAnode                 : Rh 50
Detector                  : SDD10
kV                        : 50,000
mA                        : 0,033
uA                        : 33
Filter                    : Ag 100
Medium                    : Air
PeakingTimeNr             : 3
ZeroReference             : -0,006302353460
GainReference             : 0,008007706143
NoiseReference            : 0,063759632409
FanoReference             : 0,136225819588
ZeroInit                  : -0,006286005490
GainInit                  : 0,008007762022
NoiseInit                 : 0,064493663609
FanoInit                  : 0,135903120041
ZeroFit                   : -0,016244728118
GainFit                   : 0,008018123917
NoiseFit                  : 0,049300439656
FanoFit                   : 0,152401939034
NormFactor                : 0,992071807384
NormRefCounts             : 88117,750000000000
NormCurCounts             : 88821,953125000000
ROI-Fit (chan)            : 250
ROI-Fit (chan)            : 4094
Chi-square                : 23,114484786987
RefPressure               : 741,60
RefTemp                   : 22,900
MeasPressure              : 743,24
MeasTemp                  : 29,369
Delta_hPa                 : -14,355180740356
HeliumFlow                : 0,61
LiveTime                  : 30,827237600000
TrueTime                  : 60,000446000000
FastChanLiveT             : 42,365547000000
FastChanDeadT             : 17,634899000000
DeadTime                  : 29,173208400000
DeadTimePct               : 48,622
FastChanCounts            : 6386336
OutputCounts              : 4894825
UnderflowCounts           : 0
OverflowCounts            : -43620
TotalCounts               : 4938445
NrOfChannels              : 4096
Energy (keV)	Counts	Background	Fit
-1,624473E-02	0	0	0
-8,226604E-03	0	0	0
-2,084803E-04	0	0	0
7,809644E-03	0	0	0
1,582777E-02	0	0	0
2,384589E-02	0	0	0
3,186402E-02	0	0	0
3,988214E-02	0	0	0
4,790026E-02	0	0	0
5,591839E-02	0	0	0
6,393651E-02	0	0	0
7,195464E-02	0	0	0
7,997276E-02	0	0	0
8,799088E-02	0	0	0
9,600901E-02	0	0	0
0,1040271	0	0	0
0,1120453	0	0	0
0,1200634	0	0	0
0,1280815	0	0	0
0,1360996	0	0	0
0,1441177	0	0	0
0,1521359	0	0	0
0,160154	0	0	0
0,1681721	1	0	0
0,1761902	0	0	0
0,1842084	2	0	0
0,1922265	0	0	0
0,2002446	0	0	0
0,2082627	0	0	0
0,2162809	0	0	0
0,224299	0	0	0
0,2323171	1	0	0
0,2403352	0	0	0
0,2483534	0	0	0
0,2563715	1	0	0
0,2643896	0	0	0
0,2724077	0	0	0
0,2804258	1	0	0
0,288444	0	0	0
0,2964621	0	0	0
0,3044802	1	0	0
0,3124984	1	0	0
0,3205165	0	0	0
0,3285346	0	0	0
0,3365527	0	0	0
0,3445708	0	0	0
0,352589	1	0	0
0,3606071	0	0	0
0,3686252	0	0	0
0,3766433	0	0	0
0,3846615	0	0	0
0,3926796	0	0	0
0,4006977	0	0	0
0,4087158	0	0	0
0,416734	1	0	0
0,4247521	0	0	0
0,4327702	1	0	0
0,4407883	0	0	0
0,4488065	0	0	0
0,4568246	2	0	0
0,4648427	3	0	0
0,4728608	1	0	0
0,4808789	3	0	0
0,4888971	3	0	0
0,4969152	2	0	0
0,5049333	5	0	0
0,5129514	5	0	0
0,5209696	5	0	0
0,5289877	8	0	0
0,5370058	6	0	0
0,5450239	7	0	0
0,5530421	11	0	0
0,5610602	16	0	0
0,5690783	16	0	0
0,5770965	24	0	0
0,5851145	32	0	0
0,5931327	36	0	0
0,6011508	36	0	0
0,6091689	32	0	0
0,6171871	57	0	0
0,6252052	57	0	0
0,6332233	53	0	0
0,6412414	65	0	0
0,6492596	62	0	0
0,6572777	76	0	0
0,6652958	98	0	0
0,6733139	84	0	0
0,6813321	91	0	0
0,6893502	106	0	0
0,6973683	106	0	0
0,7053864	123	0	0
0,7134045	117	0	0
0,7214227	144	0	0
0,7294408	133	0	0
0,7374589	146	0	0
0,745477	116	0	0
0,7534952	143	0	0
0,7615133	148	0	0
0,7695314	151	0	0
0,7775496	182	0	0
0,7855676	192	0	0
0,7935858	168	0	0
0,8016039	150	0	0
0,809622	162	0	0
0,8176402	165	0	0
0,8256583	185	0	0
0,8336764	178	0	0
0,8416945	189	0	0
0,8497127	185	0	0
0,8577308	161	0	0
0,8657489	175	0	0
0,873767	164	0	0
0,8817852	158	0	0
0,8898033	193	0	0
0,8978214	163	0	0
0,9058395	159	0	0
0,9138576	162	0	0
0,9218758	156	0	0
0,9298939	137	0	0
0,937912	176	0	0
0,9459301	132	0	0
0,9539483	160	0	0
0,9619664	135	0	0
0,9699845	145	0	0
0,9780027	90	0	0
0,9860207	117	0	0
0,9940389	108	0	0
1,002057	119	0	0
1,010075	126	0	0
1,018093	126	0	0
1,026111	116	0	0
1,03413	126	0	0
1,042148	122	0	0
1,050166	115	0	0
1,058184	105	0	0
1,066202	103	0	0
1,07422	117	0	0
1,082238	125	0	0
1,090256	103	0	0
1,098274	114	0	0
1,106293	103	0	0
1,114311	98	0	0
1,122329	101	0	0
1,130347	98	0	0
1,138365	107	0	0
1,146383	101	0	0
1,154401	120	0	0
1,162419	100	0	0
1,170438	96	0	0
1,178456	98	0	0
1,186474	112	0	0
1,194492	96	0	0
1,20251	99	0	0
1,210528	115	0	0
1,218546	102	0	0
1,226565	108	0	0
1,234583	95	0	0
1,242601	114	0	0
1,250619	92	0	0
1,258637	100	0	0
1,266655	91	0	0
1,274673	105	0	0
1,282691	86	0	0
1,290709	90	0	0
1,298728	98	0	0
1,306746	110	0	0
1,314764	98	0	0
1,322782	97	0	0
1,3308	91	0	0
1,338818	96	0	0
1,346836	85	0	0
1,354854	98	0	0
1,362873	94	0	0
1,370891	94	0	0
1,378909	84	0	0
1,386927	86	0	0
1,394945	89	0	0
1,402963	78	0	0
1,410981	94	0	0
1,418999	90	0	0
1,427018	67	0	0
1,435036	95	0	0
1,443054	94	0	0
1,451072	77	0	0
1,45909	84	0	0
1,467108	102	0	0
1,475126	87	0	0
1,483144	86	0	0
1,491163	93	0	0
1,499181	82	0	0
1,507199	94	0	0
1,515217	83	0	0
1,523235	83	0	0
1,531253	74	0	0
1,539271	91	0	0
1,547289	69	0	0
1,555308	90	0	0
1,563326	90	0	0
1,571344	71	0	0
1,579362	82	0	0
1,58738	67	0	0
1,595398	74	0	0
1,603416	86	0	0
1,611434	74	0	0
1,619453	68	0	0
1,627471	72	0	0
1,635489	68	0	0
1,643507	79	0	0
1,651525	63	0	0
1,659543	74	0	0
1,667561	76	0	0
1,675579	78	0	0
1,683598	84	0	0
1,691616	68	0	0
1,699634	72	0	0
1,707652	60	0	0
1,71567	86	0	0
1,723688	87	0	0
1,731706	93	0	0
1,739724	65	0	0
1,747743	83	0	0
1,755761	84	0	0
1,763779	73	0	0
1,771797	85	0	0
1,779815	78	0	0
1,787833	73	0	0
1,795851	70	0	0
1,803869	64	0	0
1,811888	80	0	0
1,819906	93	0	0
1,827924	87	0	0
1,835942	117	0	0
1,84396	96	0	0
1,851978	114	0	0
1,859996	116	0	0
1,868014	183	0	0
1,876032	137	0	0
1,884051	148	0	0
1,892069	163	0	0
1,900087	195	0	0
1,908105	193	0	0
1,916123	188	0	0
1,924141	222	0	0
1,932159	213	0	0
1,940178	213	0	0
1,948196	198	0	0
1,956214	220	0	0
1,964232	216	0	0
1,97225	194	0	0
1,980268	205	0	0
1,988286	189	75,1543	214,4609
1,996304	204	75,27637	203,8604
2,004323	176	75,38574	192,5693
2,012341	171	75,48926	180,5244
2,020359	173	75,57715	167,8691
2,028377	159	75,64746	154,9795
2,036395	163	75,70801	142,3701
2,044413	134	75,75488	130,5566
2,052431	117	75,79492	119,9707
2,060449	156	75,83203	110,877
2,068467	112	75,85156	103,3408
2,076486	117	75,86328	97,29297
2,084504	101	75,85352	92,53711
2,092522	125	75,83301	88,85449
2,10054	96	75,8125	86,02832
2,108558	101	75,80078	83,87012
2,116576	87	75,7832	82,21387
2,124594	90	75,74414	80,93164
2,132612	83	75,69434	79,95605
2,140631	90	75,64355	79,23633
2,148649	95	75,58496	78,71875
2,156667	96	75,52344	78,36426
2,164685	92	75,43848	78,11133
2,172703	93	75,34375	77,93066
2,180721	72	75,24805	77,79297
2,188739	65	75,20508	77,71582
2,196758	85	75,15625	77,61426
2,204776	72	75,06738	77,43555
2,212794	76	74,95996	77,19141
2,220812	84	74,85254	76,90137
2,22883	68	74,88184	76,71191
2,236848	93	74,90137	76,49219
2,244866	69	74,88477	76,23535
2,252884	75	74,85059	75,97852
2,260902	76	74,81738	75,75488
2,268921	71	74,80176	75,59277
2,276939	88	74,77734	75,47266
2,284957	88	74,74707	75,39746
2,292975	70	74,70117	75,35156
2,300993	81	74,64551	75,33398
2,309011	75	74,58105	75,33008
2,317029	83	74,51074	75,33203
2,325047	92	74,44043	75,33105
2,333066	62	74,36914	75,31445
2,341084	58	74,28418	75,25977
2,349102	70	74,19922	75,1748
2,35712	77	74,12207	75,06543
2,365138	70	74,04004	74,92285
2,373156	61	73,9375	74,73438
2,381174	74	73,82422	74,51855
2,389192	82	73,71191	74,29492
2,397211	83	73,66797	74,1416
2,405229	90	73,59863	73,96973
2,413247	76	73,5293	73,81055
2,421265	74	73,47559	73,68164
2,429283	84	73,39844	73,5459
2,437301	72	73,32129	73,42383
2,445319	63	73,25195	73,3252
2,453337	68	73,16504	73,2207
2,461355	81	73,06152	73,10938
2,469374	73	72,94824	73
2,477392	83	72,83594	72,90234
2,48541	62	72,67871	72,76953
2,493428	73	72,48926	72,61816
2,501446	82	72,2998	72,47949
2,509464	77	72,38477	72,62891
2,517483	77	72,45508	72,77637
2,525501	57	72,47266	72,88574
2,533519	65	72,45801	72,97461
2,541537	74	72,41602	73,04785
2,549555	73	72,35547	73,11426
2,557573	107	72,28516	73,19043
2,565591	74	72,21387	73,29883
2,573609	68	72,19434	73,51465
2,581627	88	72,1748	73,82813
2,589646	84	72,12988	74,27344
2,597664	84	72,07227	74,94531
2,605682	84	71,9834	75,92285
2,6137	92	71,87891	77,33789
2,621718	76	71,77441	79,32422
2,629736	92	71,82715	82,14648
2,637754	88	71,84668	85,68359
2,645772	99	71,83691	89,95605
2,65379	112	71,8125	94,91406
2,661809	104	71,7793	100,4053
2,669827	102	71,74121	106,1758
2,677845	118	71,70117	111,8857
2,685863	143	71,66016	117,1348
2,693881	122	71,61914	121,5117
2,701899	119	71,58691	124,6494
2,709917	131	71,54688	126,2461
2,717936	107	71,49609	126,1455
2,725954	126	71,44043	124,3574
2,733972	102	71,38184	121,041
2,74199	115	71,2998	116,4619
2,750008	91	71,20605	111,0088
2,758026	112	71,11133	105,1074
2,766044	117	71,05859	99,19727
2,774062	94	71,00684	93,57617
2,78208	77	70,9541	88,49707
2,790099	94	70,90137	84,11523
2,798117	90	70,81348	80,45801
2,806135	93	70,70703	77,52832
2,814153	89	70,59277	75,26758
2,822171	93	70,4668	73,57129
2,830189	68	70,33691	72,33496
2,838207	98	70,16797	71,41406
2,846226	79	69,97949	70,73242
2,854244	80	69,79199	70,2334
2,862262	68	69,88574	70,1377
2,87028	93	69,93555	70,0752
2,878298	95	69,96289	70,04102
2,886316	97	69,96387	70,01172
2,894334	97	69,95215	69,98926
2,902352	127	69,93457	69,97852
2,910371	114	69,91309	69,98145
2,918389	133	69,88672	70,00293
2,926407	132	69,85742	70,05664
2,934425	170	69,82324	70,15918
2,942443	157	69,78613	70,33789
2,950461	219	69,73438	70,61523
2,958479	218	69,67578	71,04492
2,966497	185	69,60645	71,67285
2,974515	189	69,53223	72,56348
2,982534	209	69,45508	73,77734
2,990552	175	69,37012	75,35938
2,99857	190	69,28027	77,34961
3,006588	181	69,17383	79,74023
3,014606	216	69,05859	82,50977
3,022624	173	68,94336	85,58887
3,030642	160	68,8623	88,88965
3,038661	161	68,76367	92,19336
3,046679	145	68,64453	95,29883
3,054697	131	68,50977	98,00098
3,062715	145	68,36719	100,1113
3,070733	148	68,18164	101,4336
3,078751	134	67,97461	101,8848
3,086769	170	67,76758	101,4531
3,094787	145	67,88477	100,5059
3,102805	154	67,9541	98,7832
3,110824	171	67,99121	96,46484
3,118842	180	68	93,74609
3,12686	165	67,99414	90,83984
3,134878	180	67,97754	87,92871
3,142896	173	67,95508	85,16406
3,150914	178	67,93262	82,64941
3,158932	145	67,91309	80,44141
3,16695	153	67,8877	78,54297
3,174968	147	67,85352	76,93164
3,182987	147	67,80469	75,56348
3,191005	149	67,74902	74,39844
3,199023	158	67,67285	73,38086
3,207041	121	67,58789	72,48047
3,215059	128	67,49805	71,67676
3,223077	106	67,40625	70,95117
3,231096	110	67,31445	70,2998
3,239114	118	67,20313	69,69727
3,247132	103	67,08105	69,15332
3,25515	113	66,95801	68,68066
3,263168	108	66,87012	68,31738
3,271186	91	66,76758	68,02051
3,279204	106	66,64063	67,78418
3,287222	103	66,5	67,62793
3,29524	89	66,35449	67,56738
3,303259	69	66,15918	67,56836
3,311277	87	65,94043	67,66504
3,319295	99	65,72266	67,88672
3,327313	81	65,85254	68,58203
3,335331	99	65,93457	69,35059
3,343349	85	65,98242	70,18652
3,351367	102	65,99902	71,06738
3,359385	88	66	71,97168
3,367404	102	65,9873	72,85156
3,375422	86	65,96777	73,66113
3,38344	83	65,94824	74,35352
3,391458	92	65,93555	74,88281
3,399476	71	65,91602	75,19531
3,407494	88	65,88184	75,26074
3,415512	87	65,83594	75,07227
3,42353	87	65,78125	74,64355
3,431549	90	65,7041	73,99219
3,439567	70	65,61719	73,16992
3,447585	80	65,52246	72,23242
3,455603	95	65,42383	71,23535
3,463621	77	65,3252	70,23438
3,471639	97	65,21777	69,26074
3,479657	74	65,09473	68,34473
3,487675	71	64,97266	67,52246
3,495693	85	64,87402	66,82813
3,503712	72	64,76367	66,22852
3,51173	57	64,62402	65,69922
3,519748	77	64,4707	65,24609
3,527766	66	64,31738	64,86914
3,535784	61	64,12402	64,51465
3,543802	80	63,90332	64,18262
3,551821	62	63,68262	63,8877
3,559839	69	63,82227	63,98047
3,567857	73	63,91309	64,04492
3,575875	63	63,97168	64,08984
3,583893	62	64,00391	64,11719
3,591911	62	64,02246	64,13672
3,599929	62	64,0293	64,14844
3,607947	77	64,03125	64,15625
3,615965	72	64,01953	64,15234
3,623984	71	64	64,14355
3,632002	69	63,97754	64,13477
3,64002	70	63,93945	64,11719
3,648038	84	63,89355	64,10156
3,656056	66	63,83496	64,08691
3,664074	84	63,75977	64,07324
3,672092	78	63,67676	64,07324
3,68011	69	63,57617	64,08398
3,688128	66	63,4668	64,11719
3,696147	85	63,35742	64,18359
3,704165	73	63,25391	64,28906
3,712183	89	63,13184	64,40625
3,720201	63	63,01074	64,5498
3,728219	55	62,90332	64,72656
3,736237	57	62,7832	64,90039
3,744255	69	62,63477	65,04688
3,752274	56	62,47168	65,17578
3,760292	73	62,30859	65,30273
3,76831	77	62,11621	65,41211
3,776328	66	61,89551	65,53223
3,784346	54	61,67578	65,74316
3,792364	61	61,97852	66,64844
3,800382	61	62,23145	67,78613
3,8084	80	62,45996	69,33203
3,816418	60	62,67676	71,48633
3,824437	70	62,88672	74,47949
3,832455	62	63,06055	78,53418
3,840473	97	63,21582	83,93555
3,848491	81	63,36133	90,94922
3,856509	106	63,4834	99,77734
3,864527	93	63,59277	110,5732
3,872545	103	63,67969	123,3516
3,880563	126	63,75586	137,999
3,888582	132	63,83105	154,2227
3,8966	168	63,91406	171,5361
3,904618	167	63,96191	189,2207
3,912636	201	63,99121	206,4717
3,920654	219	64,00977	222,3799
3,928672	219	64,02246	236,0234
3,93669	231	63,95996	246,4795
3,944709	213	63,86133	253,0928
3,952727	215	63,7627	255,4463
3,960745	229	63,93652	253,6426
3,968763	209	64,06543	247,5039
3,976781	209	64,17188	237,4795
3,984799	232	64,2666	224,251
3,992817	183	64,31738	208,624
4,000835	157	64,34473	191,54
4,008853	167	64,33008	173,8916
4,016871	160	64,29395	156,5293
4,02489	146	64,25684	140,1582
4,032908	133	64,22559	125,2891
4,040926	130	64,14648	112,1875
4,048944	107	64,06836	101,04
4,056962	96	64,0791	91,9248
4,064981	99	64,0791	84,61426
4,072999	85	63,97168	78,8125
4,081017	85	63,81055	74,33301
4,089035	73	63,65039	70,97949
4,097053	72	63,59863	68,62598
4,105071	73	63,54688	66,95508
4,113089	95	63,49609	65,79395
4,121107	62	63,44434	65,00781
4,129125	68	63,41016	64,51172
4,137144	82	63,25293	64,09766
4,145162	68	63,09473	63,84766
4,15318	69	62,99414	63,80176
4,161198	67	62,88672	63,90137
4,169216	63	62,50781	63,91016
4,177234	60	61,99512	64,0127
4,185252	60	61,4834	64,42383
4,19327	79	62,2168	66,4541
4,201288	80	62,78125	68,80859
4,209307	86	63,08789	71,51953
4,217325	81	63,2627	74,86133
4,225343	87	63,43848	79,12109
4,233361	82	63,54883	84,41406
4,241379	99	63,59082	90,93848
4,249397	127	63,63184	99,01855
4,257415	135	63,90918	109,2285
4,265433	138	64,0625	121,6855
4,273452	141	64,15234	137,166
4,28147	172	64,21094	156,7598
4,289488	189	64,25098	182,0352
4,297506	214	64,24121	215,165
4,305524	268	64,15039	259,1426
4,313542	333	64,02051	317,9834
4,32156	357	63,86523	396,6924
4,329578	476	63,69629	501,2549
4,337596	627	63,52246	638,4365
4,345615	753	63,3457	815,4043
4,353633	993	63,16895	1039,146
4,361651	1279	63,0918	1315,768
4,369669	1521	62,86621	1649,115
4,377687	1828	62,53711	2040,389
4,385705	2253	62,15723	2486,891
4,393723	2693	61,77832	2981,258
4,401742	3038	61,08105	3510,673
4,40976	3704	60,13184	4057,705
4,417778	4201	59,19043	4600,785
4,425796	4642	60,33887	5117,098
4,433814	5047	61,22266	5578,105
4,441832	5324	61,7627	5958,42
4,44985	5628	62,08008	6235,997
4,457869	5730	62,28613	6394,039
4,465887	5735	62,33008	6422,529
4,473905	5581	62,29199	6319,541
4,481923	5468	62,25391	6091,305
4,489941	5177	62,79297	5752,076
4,497959	4633	63,11523	5320,895
4,505977	4195	63,3291	4821,912
4,513995	3760	63,48926	4281,225
4,522013	3282	63,59961	3724,635
4,530032	2758	63,64063	3175,706
4,53805	2302	63,55957	2654,237
4,546068	1973	63,41895	2175,422
4,554086	1505	63,22559	1749,367
4,562104	1289	63,00781	1381,315
4,570122	1063	62,77734	1072,208
4,57814	750	62,54004	819,5693
4,586158	623	62,30371	618,4922
4,594176	465	62,11719	462,6602
4,602195	365	61,74609	344,8887
4,610213	292	61,26563	258,415
4,618231	262	60,73047	197,0898
4,626249	196	60,19824	155,7236
4,634267	204	59,31348	129,873
4,642285	197	58,12109	116,7227
4,650303	171	56,93945	114,9697
4,658321	169	58,3623	126,7842
4,66634	184	59,47266	149,9688
4,674358	245	60,14258	186,1719
4,682376	247	60,5498	238,2969
4,690394	359	60,82324	310,0029
4,698412	420	60,88867	405,334
4,70643	597	60,84863	528,8047
4,714448	741	60,80859	684,833
4,722466	849	61,50098	877,874
4,730484	1142	61,94336	1109,523
4,738503	1369	62,25977	1380,746
4,746521	1768	62,51367	1690,121
4,754539	2072	62,70898	2033,459
4,762557	2522	62,80859	2403,449
4,770575	2875	62,83203	2789,84
4,778594	3327	62,81641	3179,699
4,786612	3721	62,66797	3557,923
4,79463	4152	62,4541	3908,486
4,802648	4514	62,20703	4215,447
4,810666	4852	61,94336	4464,25
4,818684	4957	61,68066	4643,002
4,826702	5111	61,38672	4743,475
4,83472	5244	60,92676	4761,777
4,842738	5249	60,38672	4698,959
4,850757	5141	59,80859	4560,582
4,858775	5195	59,2334	4356,144
4,866793	4790	58,38379	4097,778
4,874811	4601	57,22656	3799,642
4,882829	4417	56,08105	3476,753
4,890847	4122	57,38574	3145,59
4,898865	3706	58,38672	2815,818
4,906883	3467	59,02441	2497,521
4,914901	3257	59,39648	2198,318
4,92292	3051	59,63477	1923,25
4,930938	2628	59,7002	1674,802
4,938956	2380	59,67871	1453,643
4,946974	2220	59,65723	1259,017
4,954992	1951	60,29785	1089,851
4,96301	1729	60,69238	943,0947
4,971028	1490	60,96387	816,7031
4,979046	1317	61,17383	708,8203
4,987064	1114	61,35156	617,9727
4,995083	964	61,42676	543,0742
5,003101	871	61,44727	483,6328
5,011119	728	61,41602	439,5371
5,019137	666	61,26074	410,9336
5,027155	653	61,04492	398,3145
5,035173	599	60,78613	402,207
5,043191	537	60,50684	423,0732
5,051209	538	60,22754	461,1377
5,059228	581	59,8877	516,1445
5,067246	644	59,41699	587,2637
5,075264	643	58,88379	673,0928
5,083282	747	58,32031	771,3857
5,0913	880	57,75977	879,041
5,099319	940	56,93652	991,8398
5,107337	1082	55,85449	1105,137
5,115355	1162	54,7832	1214,075
5,123373	1229	55,91699	1315,539
5,131391	1282	56,75781	1401,916
5,139409	1310	57,31738	1468,627
5,147427	1321	57,62305	1512,032
5,155445	1388	57,80273	1529,799
5,163463	1297	57,85059	1520,87
5,171482	1370	57,83301	1485,748
5,1795	1360	57,81445	1426,37
5,187518	1264	58,32422	1346,391
5,195536	1106	58,63281	1249,182
5,203554	1040	58,84082	1139,567
5,211572	955	58,98633	1022,551
5,21959	852	59,10059	902,999
5,227608	679	59,13867	785,2705
5,235626	633	59,13672	673,1123
5,243645	569	59,08691	569,3965
5,251663	459	58,93164	476,0566
5,259681	378	58,72461	394,2676
5,267699	321	58,47461	324,3877
5,275717	252	58,20313	266,1445
5,283735	230	57,93359	218,7822
5,291753	199	57,58691	181,124
5,299771	163	57,14551	151,8809
5,307789	120	56,6582	129,7783
5,315808	110	56,15039	113,5703
5,323826	97	55,64355	102,1309
5,331844	95	54,88184	94,22266
5,339862	92	53,92285	89,11914
5,34788	76	52,97168	86,44531
5,355898	91	53,85254	87,64844
5,363916	101	54,49609	90,47559
5,371934	89	54,91895	94,94141
5,379952	90	55,15332	101,2334
5,387971	94	55,29297	109,7295
5,395989	94	55,33496	120,8018
5,404007	113	55,32813	134,9307
5,412025	151	55,32031	152,5918
5,420043	167	55,59766	174,4424
5,428061	167	55,77734	200,3486
5,43608	208	55,90625	230,4258
5,444098	237	55,96289	264,4785
5,452116	236	55,9834	302,0859
5,460134	296	55,97168	342,4834
5,468152	305	55,94531	384,6191
5,47617	409	55,89063	427,1211
5,484188	416	55,73828	468,3486
5,492207	488	55,53613	506,6494
5,500225	470	55,2832	540,3037
5,508243	488	55,00391	567,7227
5,516261	495	54,72559	587,5527
5,524279	512	54,41992	598,7246
5,532297	569	54,02344	600,5615
5,540315	528	53,62891	593,0234
5,548333	498	53,25684	576,4893
5,556351	500	52,87793	551,7432
5,56437	468	52,22754	519,7295
5,572388	469	51,44727	482,082
5,580406	384	50,67285	440,6074
5,588424	398	51,24805	398,3691
5,596442	305	51,68359	355,5361
5,60446	282	51,89746	313,5225
5,612478	247	52,00098	273,7031
5,620496	240	52,10449	237,1807
5,628514	174	52,20508	204,6572
5,636533	183	52,23828	176,4971
5,644551	163	52,27051	152,9541
5,652569	157	52,30176	134,0176
5,660587	127	52,27539	119,4688
5,668605	130	52,24902	109,1035
5,676623	134	52,22559	102,6025
5,684641	146	52,17188	99,57715
5,692659	166	52,06348	99,64063
5,700677	180	51,92871	102,4561
5,708696	201	51,79492	107,6836
5,716714	186	51,6543	114,9395
5,724732	228	51,45801	123,7842
5,73275	258	51,2373	133,8301
5,740768	335	51,00488	144,6426
5,748786	344	50,77148	155,7568
5,756804	367	50,43359	166,5723
5,764822	378	50,02344	176,6221
5,772841	383	49,61523	185,498
5,780859	413	49,51172	193,0645
5,788877	370	49,34961	198,5908
5,796895	420	48,96875	201,6426
5,804913	395	48,48047	202,1748
5,812932	391	47,99414	200,2637
5,82095	358	48,26367	196,7607
5,828968	365	48,44238	191,0361
5,836986	347	48,46973	183,3486
5,845004	288	48,4209	174,1709
5,853022	281	48,37207	164,0244
5,86104	271	48,40332	153,4482
5,869058	249	48,38281	142,752
5,877076	192	48,33691	132,3564
5,885095	187	48,22656	122,5557
5,893113	157	48,08398	113,627
5,901131	162	47,94238	105,7637
5,909149	168	47,80469	99,03906
5,917167	149	47,62305	93,39844
5,925185	143	47,41016	88,77734
5,933203	126	47,18164	85,06543
5,941221	131	46,95313	82,11719
5,949239	125	46,63574	79,66797
5,957258	117	46,27637	77,58594
5,965276	102	45,91797	75,75098
5,973294	97	45,97852	74,44141
5,981312	112	45,99219	73,08301
5,98933	97	45,87402	71,51172
5,997348	101	45,68945	69,75195
6,005366	95	45,50488	67,85547
6,013384	90	45,46582	65,97949
6,021402	66	45,37793	63,96387
6,029421	77	45,28516	61,89453
6,037439	70	45,1748	59,81445
6,045457	61	45,05664	57,7832
6,053475	61	44,89648	55,82129
6,061493	45	44,71484	53,99512
6,069511	42	44,53516	52,36426
6,077529	47	44,43555	51,04492
6,085547	43	44,31152	49,95801
6,093565	48	44,14844	49,11816
6,101584	43	43,9668	48,57129
6,109602	42	43,78516	48,36621
6,11762	56	43,68066	48,6123
6,125638	46	43,56934	49,26855
6,133657	58	43,4502	50,38379
6,141675	51	43,32715	52,01465
6,149693	45	43,19043	54,20898
6,157711	53	43,04492	57,03125
6,165729	50	42,89648	60,53906
6,173747	56	42,74414	64,76953
6,181765	68	42,58984	69,74219
6,189783	66	42,41992	75,43555
6,197801	59	42,24219	81,81152
6,20582	111	42,06543	88,79102
6,213838	71	41,93066	96,28613
6,221856	95	41,7959	104,0781
6,229874	105	41,65918	111,9502
6,237892	133	41,52051	119,6553
6,24591	132	41,36523	126,9063
6,253928	116	41,2002	133,4375
6,261946	145	41,03613	138,9893
6,269964	122	40,88867	143,3398
6,277983	150	40,73047	146,2676
6,286001	161	40,57227	147,6436
6,294019	152	40,41602	147,4014
6,302037	147	40,25781	145,541
6,310055	150	40,08203	142,1211
6,318073	120	39,89746	137,2969
6,326091	162	39,71289	131,2754
6,334109	147	39,57617	124,3486
6,342127	106	39,43164	116,7305
6,350146	142	39,27344	108,6885
6,358164	113	39,1084	100,499
6,366182	89	38,94336	92,41504
6,3742	105	38,76563	84,63281
6,382218	100	38,57715	77,3252
6,390236	91	38,38867	70,62598
6,398254	73	38,25586	64,66992
6,406272	82	38,11719	59,43066
6,41429	68	37,96191	54,89844
6,422309	67	37,79785	51,05273
6,430327	64	37,63086	47,84668
6,438345	74	37,45313	45,20605
6,446363	69	37,26953	43,06445
6,454381	42	37,08691	41,35254
6,462399	43	36,92285	40,01563
6,470417	42	36,76074	38,96777
6,478436	63	36,5791	38,13086
6,486454	36	36,38867	37,46289
6,494472	32	36,17676	36,90918
6,50249	46	35,95605	36,44727
6,510508	43	35,72949	36,05469
6,518526	48	35,48926	35,70117
6,526545	42	35,24316	35,37891
6,534563	34	34,9707	35,05664
6,542581	24	34,68652	34,73926
6,550599	35	34,40234	34,43555
6,558617	30	34,60156	34,62109
6,566635	40	34,75586	34,76758
6,574653	36	34,88965	34,89648
6,582671	35	34,97461	34,97852
6,590689	34	35,03418	35,03711
6,598708	33	35,08301	35,08398
6,606726	36	35,125	35,125
6,614744	35	35,16699	35,16699
6,622762	46	35,2998	35,2998
6,63078	33	35,40723	35,40723
6,638798	44	35,50195	35,50195
6,646816	46	35,58008	35,58008
6,654834	39	35,65137	35,65137
6,662852	42	35,71289	35,71289
6,670871	39	35,76953	35,76953
6,678889	45	35,82129	35,82129
6,686907	28	35,85352	35,85352
6,694925	41	35,87793	35,87793
6,702943	30	35,89648	35,89648
6,710961	35	35,91113	35,91113
6,718979	33	35,92578	35,92578
6,726997	47	35,95215	35,95215
6,735015	36	35,97168	35,97168
6,743034	33	35,97656	35,97656
6,751052	38	35,96875	35,96875
6,75907	42	35,95313	35,95313
6,767088	40	35,91016	35,91016
6,775106	40	35,85352	35,85352
6,783124	37	35,79688	35,79688
6,791142	39	35,94824	35,94824
6,79916	45	36,08008	36,08008
6,807178	30	36,17383	36,17383
6,815197	36	36,24707	36,24707
6,823215	38	36,31055	36,31055
6,831233	39	36,35547	36,35547
6,839251	37	36,39063	36,39063
6,84727	39	36,42578	36,42578
6,855288	40	36,55859	36,55957
6,863306	39	36,67188	36,67383
6,871324	46	36,77148	36,77344
6,879342	29	36,8457	36,84863
6,88736	34	36,90723	36,91309
6,895378	44	36,95996	36,96973
6,903396	41	37,00977	37,02441
6,911414	52	37,05957	37,08203
6,919433	38	37,1084	37,14258
6,927451	39	37,15723	37,20801
6,935469	33	37,19434	37,26758
6,943487	41	37,22363	37,33105
6,951505	35	37,24414	37,39648
6,959523	38	37,25781	37,47461
6,967541	43	37,27051	37,57031
6,975559	46	37,26855	37,68066
6,983577	44	37,25977	37,81738
6,991596	43	37,24805	37,99219
6,999614	29	37,23438	38,21484
7,007632	48	37,2207	38,49316
7,01565	26	37,21875	38,84668
7,023668	43	37,3291	39,38477
7,031686	39	37,44043	39,99902
7,039704	37	37,51855	40,66113
7,047722	43	37,5791	41,38574
7,05574	64	37,63184	42,17773
7,063759	49	37,66309	43,01953
7,071777	44	37,68555	43,90723
7,079795	40	37,70703	44,83594
7,087813	45	37,8457	45,90234
7,095831	45	37,96875	46,94824
7,103849	53	38,0625	47,93164
7,111867	42	38,12012	48,81836
7,119885	37	38,15918	49,59766
7,127903	51	38,17871	50,24023
7,135922	50	38,18848	50,73047
7,14394	48	38,19727	51,06152
7,151958	54	38,27344	51,28711
7,159976	46	38,3457	51,3291
7,167994	53	38,41602	51,19238
7,176013	33	38,47461	50,87305
7,184031	49	38,50488	50,37305
7,192049	57	38,52246	49,72656
7,200067	33	38,52441	48,95703
7,208085	39	38,51953	48,10059
7,216103	41	38,51074	47,19043
7,224121	34	38,48242	46,2373
7,232139	52	38,44238	45,27637
7,240158	35	38,40332	44,34375
7,248176	37	38,57031	43,66504
7,256194	44	38,72754	43,03613
7,264212	38	38,86035	42,45605
7,27223	39	38,98145	41,94043
7,280248	33	39,10254	41,50488
7,288266	37	39,3877	41,31152
7,296284	34	39,65527	41,17676
7,304302	40	39,91504	41,10156
7,312321	44	40,16699	41,0791
7,320339	50	40,41113	41,10449
7,328357	52	40,65332	41,17285
7,336375	41	40,87305	41,25684
7,344393	62	41,08203	41,36133
7,352411	56	41,29102	41,49219
7,360429	45	41,49805	41,6416
7,368447	49	41,70117	41,80176
7,376465	43	41,90234	41,97266
7,384484	69	42,10449	42,15234
7,392502	69	42,2998	42,33203
7,40052	68	42,49219	42,51367
7,408538	48	42,68262	42,69727
7,416556	67	42,86523	42,87402
7,424574	42	43,04395	43,0498
7,432592	61	43,20801	43,21191
7,44061	75	43,36523	43,36816
7,448628	66	43,52344	43,52441
7,456647	78	43,69043	43,69141
7,464665	62	43,85254	43,85352
7,472683	78	44,00977	44,00977
7,480701	93	44,15723	44,15723
7,488719	80	44,30078	44,30078
7,496737	70	44,43945	44,43945
7,504755	76	44,57715	44,57715
7,512774	84	44,71387	44,71387
7,520792	97	44,86816	44,86816
7,52881	90	45,01074	45,01074
7,536828	88	45,14648	45,14648
7,544846	66	45,27832	45,27832
7,552864	73	45,39551	45,39551
7,560883	78	45,50488	45,50488
7,568901	74	45,61133	45,61133
7,576919	64	45,71582	45,71582
7,584937	73	45,82031	45,82031
7,592955	73	45,93652	45,93652
7,600973	81	46,04688	46,04688
7,608991	79	46,15625	46,15625
7,617009	92	46,26563	46,26563
7,625027	89	46,3418	46,3418
7,633046	74	46,40137	46,40137
7,641064	90	46,45215	46,45215
7,649082	101	46,49902	46,49902
7,6571	105	46,5459	46,5459
7,665118	106	46,58301	46,63672
7,673136	101	46,58984	46,68359
7,681154	113	46,59668	46,75879
7,689172	115	46,75391	47,17578
7,69719	138	46,89355	47,60938
7,705209	119	47,03418	48,2334
7,713227	119	47,16406	49,15234
7,721245	142	47,28223	50,53613
7,729263	148	47,38672	52,64746
7,737281	154	47,46484	55,86523
7,745299	178	47,52832	60,7793
7,753317	189	47,56836	68,2168
7,761335	246	47,59668	79,37891
7,769353	245	47,625	95,94922
7,777372	275	47,66602	120,2451
7,78539	303	47,66699	155,3486
7,793408	343	47,66797	205,4824
7,801426	430	47,68555	276,1553
7,809444	527	47,70117	374,4316
7,817462	657	47,64551	509,2061
7,82548	832	47,55469	691,6436
7,833498	1130	47,46387	935,3213
7,841516	1352	47,61816	1256,601
7,849535	1728	47,7334	1673,946
7,857553	2211	47,76953	2208,574
7,865571	2811	47,7666	2883,953
7,873589	3666	47,76367	3725,115
7,881608	4618	47,87012	4757,831
7,889626	5776	47,93945	6007,046
7,897644	7052	47,98828	7495,768
7,905662	8958	48,02539	9243,084
7,91368	10948	48,06348	11262,16
7,921698	13290	48,11035	13558,13
7,929716	15747	48,13281	16126,04
7,937734	18559	48,15527	18949,18
7,945752	21517	48,20117	21997,6
7,953771	25069	48,22461	25227,41
7,961789	28647	48,24707	28580,89
7,969807	32349	48,25098	31987,41
7,977825	36011	48,24414	35365,39
7,985843	39181	48,19824	38625,18
7,993861	42208	48,13379	41672,82
8,001879	45457	48,06934	44414,37
8,009897	47540	48,01367	46760,68
8,017916	49540	47,92578	48632,08
8,025933	50804	47,83203	49963,02
8,033952	51705	47,69824	50705,71
8,04197	51740	47,54492	50833,13
8,049988	51426	47,32617	50340,48
8,058006	49916	47,07422	49245,68
8,066024	48224	46,82422	47588,17
8,074042	45832	47,02051	45426,98
8,082061	43048	47,17773	42835,95
8,090078	39613	47,29102	39900,92
8,098097	36184	47,38184	36714,56
8,106114	32661	47,47168	33371,51
8,114133	29015	47,54883	29963,82
8,122151	25616	47,61523	26576,94
8,130169	22664	47,66016	23286,4
8,138187	19037	47,68652	20155,55
8,146205	16457	47,70508	17234,11
8,154223	13614	47,70898	14557,77
8,162242	11144	47,68359	12148,57
8,170259	9200	47,64355	10016,1
8,178278	7535	47,58398	8159,064
8,186296	6042	47,51465	6567,299
8,194314	4708	47,44434	5223,821
8,202332	3781	47,37793	4106,92
8,21035	2924	47,30859	3192,055
8,218369	2312	47,20313	2453,508
8,226387	1747	47,08008	1865,82
8,234405	1373	46,95703	1404,786
8,242423	1029	46,81641	1048,135
8,250441	810	46,65039	776,0264
8,258459	599	46,46875	571,2529
8,266478	492	46,26465	419,2236
8,274495	432	46,05078	307,8613
8,282514	330	45,77148	227,3076
8,290532	276	45,45996	169,793
8,29855	234	45,15039	129,2607
8,306568	226	45,32813	101,5322
8,314586	195	45,45703	82,55273
8,322604	201	45,5459	69,72852
8,330623	185	45,60547	61,17773
8,33864	161	45,6377	55,54199
8,346659	161	45,6543	51,87695
8,354676	147	45,66016	49,52148
8,362695	135	45,65137	48,01855
8,370713	136	45,63281	47,06543
8,378731	121	45,59766	46,4541
8,386749	139	45,55469	46,06055
8,394767	141	45,48535	45,74707
8,402785	134	45,40332	45,55469
8,410804	122	45,30566	45,30566
8,418821	135	45,19922	45,19922
8,42684	128	45,08984	45,08984
8,434858	133	44,97656	44,97656
8,442876	127	44,86133	44,86133
8,450894	116	44,71094	44,71094
8,458912	132	44,54395	44,54395
8,46693	127	44,37695	44,37695
8,474949	120	44,24902	44,24902
8,482966	134	44,10547	44,10547
8,490985	128	43,92383	43,92383
8,499002	129	43,72266	43,72266
8,507021	137	43,51367	43,51367
8,515039	135	43,25098	43,25098
8,523057	123	42,96289	42,96289
8,531075	160	42,67578	42,71289
8,539093	154	42,7832	42,8457
8,547112	154	42,83789	42,94238
8,55513	162	42,86133	43,03223
8,563148	166	42,86719	43,14551
8,571166	166	42,83008	43,2793
8,579185	156	42,77246	43,48828
8,587202	177	42,70313	43,83203
8,595221	179	42,62793	44,38672
8,603238	193	42,55273	45,26367
8,611257	188	42,45117	46,5791
8,619275	190	42,32813	48,54492
8,627293	202	42,20508	51,46191
8,635311	217	42,13477	55,76172
8,643329	272	42,04102	61,87598
8,651347	259	41,93555	70,47949
8,659366	287	41,82324	82,4375
8,667383	294	41,7002	98,83594
8,675402	335	41,57031	121,043
8,68342	367	41,41797	150,71
8,691438	443	41,25391	189,8584
8,699456	424	41,08984	240,8672
8,707474	561	40,98535	306,5264
8,715492	643	40,87109	389,8408
8,723511	698	40,71777	494,1543
8,731528	872	40,54688	623,0713
8,739547	1042	40,37305	780,29
8,747564	1268	40,16406	969,3955
8,755583	1391	39,93848	1193,754
8,763601	1651	39,71387	1456,227
8,771619	1964	39,69824	1759,096
8,779637	2363	39,66699	2103,169
8,787655	2687	39,62109	2488,152
8,795673	3148	39,56641	2912,195
8,803692	3654	39,4707	3371,635
8,811709	4006	39,35352	3860,969
8,819728	4681	39,22656	4372,755
8,827746	5201	39,08691	4897,682
8,835764	5635	38,93945	5424,799
8,843782	6169	38,77539	5941,803
8,8518	6790	38,60156	6435,521
8,859818	7250	38,42871	6892,429
8,867837	7609	38,35938	7299,338
8,875854	7947	38,27441	7643,723
8,883873	8154	38,18066	7914,7
8,891891	8333	38,08301	8103,461
8,899909	8252	37,97754	8203,746
8,907928	8400	37,86523	8212,209
8,915945	8309	37,75	8128,59
8,923964	7895	37,62988	7955,729
8,931982	7713	37,49902	7699,404
8,94	7140	37,36328	7368,023
8,948018	6870	37,22168	6972,155
8,956036	6480	37,07715	6523,973
8,964054	5804	36,93262	6036,635
8,972073	5410	36,80859	5523,666
8,98009	4959	36,68262	4998,293
8,988109	4351	36,55078	4472,945
8,996126	3684	36,41016	3958,799
9,004145	3297	36,26465	3465,434
9,012163	2821	36,11328	3000,604
9,020181	2377	35,96094	2570,156
9,028199	2052	35,80762	2178,037
9,036217	1621	35,67578	1826,424
9,044235	1400	35,5332	1515,849
9,052254	1214	35,38086	1245,521
9,060271	971	35,22559	1013,563
9,06829	745	35,07031	817,2861
9,076308	619	34,92676	653,4658
9,084326	497	34,78418	518,5439
9,092344	405	34,6377	408,8701
9,100362	324	34,48926	320,8691
9,10838	244	34,34082	251,1563
9,116399	196	34,19336	196,624
9,124416	161	34,0459	154,4971
9,132435	127	33,89746	122,3545
9,140452	119	33,73438	98,12012
9,148471	91	33,56445	80,0752
9,156489	100	33,38379	66,80176
9,164507	75	33,19824	57,16309
9,172525	57	33,01367	50,26172
9,180543	50	32,82715	45,38867
9,188561	46	32,63184	41,99512
9,19658	55	32,43652	39,67871
9,204597	46	32,35156	38,24121
9,212616	32	32,30371	37,38281
9,220634	38	32,25586	36,89746
9,228652	33	32,2041	36,66113
9,23667	45	32,13965	36,5752
9,244688	34	32,07617	36,58887
9,252707	42	32,00488	36,64941
9,260725	36	31,9209	36,7168
9,268743	25	31,83398	36,77734
9,276761	40	31,72656	36,79492
9,284779	31	31,6084	36,74609
9,292797	42	31,49023	36,68945
9,300816	35	31,36328	36,5752
9,308833	33	31,23145	36,40527
9,316852	35	31,0791	36,16699
9,32487	26	30,91699	35,87402
9,332888	25	30,74902	35,53516
9,340906	44	30,5791	35,1582
9,348924	33	30,4082	34,75195
9,356942	41	30,23828	34,32227
9,364961	25	30,21973	34,0293
9,372978	40	30,19629	33,72266
9,380997	33	30,14941	33,39063
9,389014	36	30,0918	33,0498
9,397033	36	30,0332	32,71582
9,405051	39	29,95605	32,37793
9,413069	28	29,87012	32,04688
9,421087	29	29,7832	31,73633
9,429105	34	29,6748	31,42676
9,437123	33	29,55566	31,13184
9,445142	28	29,4375	30,86328
9,453159	35	29,30469	30,60742
9,461178	27	29,16406	30,37305
9,469196	26	29,01172	30,15625
9,477214	33	28,85449	29,96289
9,485232	33	28,69824	29,79883
9,49325	27	28,54102	29,66309
9,501268	29	28,36816	29,54004
9,509287	34	28,19629	29,44336
9,517304	33	28,2002	29,54883
9,525323	27	28,19434	29,66699
9,53334	25	28,16406	29,78125
9,541359	24	28,11328	29,89355
9,549377	30	28,05176	30,00879
9,557395	36	27,97656	30,11816
9,565413	27	27,89355	30,22559
9,573431	27	27,81055	30,33301
9,58145	30	27,77148	30,47949
9,589468	31	27,72461	30,60645
9,597486	26	27,65332	30,69238
9,605504	35	27,57031	30,74707
9,613523	46	27,4873	30,77637
9,62154	41	27,43359	30,80566
9,629559	31	27,36719	30,79102
9,637576	25	27,29395	30,73633
9,645595	35	27,21484	30,6416
9,653613	29	27,13086	30,50879
9,661631	27	27,0459	30,3418
9,669649	29	26,95703	30,1416
9,677667	26	26,86523	29,91211
9,685685	33	26,76953	29,6543
9,693704	25	26,66797	29,37402
9,701721	31	26,56445	29,07715
9,70974	23	26,4541	28,76465
9,717758	25	26,33984	28,44531
9,725776	32	26,22656	28,12793
9,733794	33	26,11719	27,81836
9,741812	31	26	27,51074
9,74983	23	25,88379	27,21582
9,757849	29	25,77441	26,94434
9,765866	26	25,65527	26,67773
9,773885	25	25,52246	26,41895
9,781902	28	25,38379	26,17383
9,789921	24	25,24609	25,9502
9,797939	22	25,29785	25,9375
9,805957	21	25,33398	25,92871
9,813975	26	25,36133	25,93359
9,821993	26	25,37793	25,94922
9,830011	25	25,39063	25,97949
9,83803	27	25,40137	26,02637
9,846047	31	25,40723	26,08691
9,854066	26	25,41113	26,16211
9,862084	26	25,4043	26,24023
9,870102	31	25,3916	26,32715
9,87812	34	25,37598	26,4209
9,886138	35	25,35938	26,52246
9,894156	30	25,3418	26,63086
9,902175	43	25,32324	26,73828
9,910192	33	25,2998	26,8418
9,918211	32	25,27441	26,94043
9,926229	25	25,2373	27,02051
9,934247	31	25,19531	27,08496
9,942266	20	25,15137	27,13379
9,950283	27	25,10547	27,16602
9,958302	26	25,05859	27,17969
9,966319	33	25,03809	27,19824
9,974338	42	25,00293	27,18066
9,982356	35	24,96875	27,14258
9,990374	27	24,94727	27,0957
9,998392	29	24,91211	27,01367
10,00641	26	24,86914	26,90527
10,01443	35	24,82324	26,77441
10,02245	24	24,77734	26,62988
10,03046	28	24,80664	26,54688
10,03848	30	24,82715	26,44531
10,0465	23	24,84277	26,33203
10,05452	22	24,84473	26,20215
10,06254	26	24,83887	26,06348
10,07055	15	24,8291	25,92285
10,07857	27	24,81836	25,78516
10,08659	30	24,80762	25,6543
10,09461	29	24,79785	25,53027
10,10263	35	24,78027	25,40918
10,11065	30	24,76074	25,29492
10,11866	19	24,74121	25,18945
10,12668	38	24,7207	25,09375
10,1347	24	24,69824	25,00586
10,14272	25	24,66602	24,91699
10,15074	22	24,62988	24,83203
10,15875	31	24,58691	24,74805
10,16677	24	24,54102	24,66797
10,17479	29	24,49512	24,59473
10,18281	28	24,45605	24,53418
10,19083	26	24,40039	24,45996
10,19884	18	24,34375	24,38965
10,20686	20	24,30762	24,3418
10,21488	31	24,27051	24,2959
10,2229	16	24,2041	24,22266
10,23092	27	24,11621	24,12988
10,23894	18	24,02832	24,03809
10,24695	33	24,09082	24,09766
10,25497	42	24,13672	24,1416
10,26299	26	24,14258	24,14648
10,27101	33	24,12793	24,13086
10,27903	31	24,11328	24,11523
10,28704	23	24,12988	24,13086
10,29506	20	24,14258	24,14355
10,30308	30	24,1377	24,1377
10,3111	26	24,12305	24,12305
10,31912	29	24,1084	24,1084
10,32714	23	24,10059	24,10059
10,33515	24	24,08887	24,08887
10,34317	32	24,07715	24,07715
10,35119	21	24,05859	24,05859
10,35921	35	24,03711	24,03711
10,36723	27	24,01172	24,01172
10,37524	27	23,97656	23,97656
10,38326	26	23,9375	23,9375
10,39128	18	23,88867	23,88867
10,3993	33	23,83496	23,83496
10,40732	27	23,78223	23,78223
10,41533	25	23,73535	23,73535
10,42335	21	23,67285	23,67285
10,43137	24	23,60938	23,60938
10,43939	26	23,57422	23,57422
10,44741	16	23,53516	23,53516
10,45543	26	23,44043	23,44043
10,46344	23	23,31641	23,31641
10,47146	18	23,19336	23,19336
10,47948	25	23,2998	23,2998
10,4875	32	23,38477	23,38477
10,49552	22	23,42383	23,42383
10,50353	29	23,43945	23,43945
10,51155	17	23,45508	23,45508
10,51957	27	23,4873	23,4873
10,52759	35	23,50488	23,50488
10,53561	27	23,51465	23,51465
10,54362	14	23,51953	23,51953
10,55164	30	23,52051	23,52051
10,55966	21	23,52148	23,52148
10,56768	29	23,51465	23,51465
10,5757	26	23,49609	23,49609
10,58372	35	23,47266	23,47266
10,59173	23	23,44727	23,44727
10,59975	23	23,4209	23,4209
10,60777	17	23,38672	23,38672
10,61579	33	23,33984	23,33984
10,62381	26	23,29395	23,29395
10,63182	31	23,29199	23,29199
10,63984	22	23,28516	23,28516
10,64786	22	23,24414	23,24414
10,65588	29	23,18652	23,18652
10,6639	29	23,12988	23,12988
10,67191	22	23,13965	23,13965
10,67993	22	23,1377	23,1377
10,68795	27	23,09473	23,09473
10,69597	23	23,03027	23,03027
10,70399	23	22,96582	22,96582
10,712	32	23,01855	23,01855
10,72002	26	23,05859	23,05859
10,72804	18	23,07422	23,07422
10,73606	30	23,0791	23,0791
10,74408	25	23,08301	23,08301
10,7521	30	23,0918	23,0918
10,76011	34	23,08984	23,08984
10,76813	24	23,08301	23,08301
10,77615	33	23,07031	23,07031
10,78417	26	23,05469	23,05469
10,79219	20	23,03906	23,03906
10,8002	30	23,02441	23,02441
10,80822	24	23	23
10,81624	26	22,97168	22,97168
10,82426	30	22,94141	22,94141
10,83228	19	22,91113	22,91113
10,84029	21	22,86816	22,86816
10,84831	25	22,81445	22,81445
10,85633	25	22,75977	22,75977
10,86435	24	22,78223	22,78223
10,87237	23	22,7959	22,7959
10,88039	22	22,78516	22,78516
10,8884	10	22,76074	22,76074
10,89642	30	22,73633	22,73633
10,90444	29	22,74512	22,74512
10,91246	21	22,74805	22,74805
10,92048	23	22,73926	22,73926
10,92849	26	22,72656	22,72656
10,93651	26	22,71289	22,71289
10,94453	28	22,70215	22,70215
10,95255	31	22,68848	22,68848
10,96057	23	22,67383	22,67383
10,96859	26	22,65625	22,65625
10,9766	26	22,63574	22,63574
10,98462	32	22,61523	22,61523
10,99264	25	22,59277	22,59277
11,00066	29	22,56934	22,56934
11,00868	28	22,54297	22,54297
11,01669	21	22,51465	22,51465
11,02471	24	22,48633	22,48633
11,03273	25	22,45898	22,45898
11,04075	26	22,42578	22,42578
11,04877	24	22,39355	22,39355
11,05678	30	22,36914	22,36914
11,0648	21	22,34473	22,34473
11,07282	27	22,31055	22,31055
11,08084	27	22,27148	22,27148
11,08886	29	22,23242	22,23242
11,09688	18	22,22363	22,22363
11,10489	20	22,20996	22,20996
11,11291	17	22,18555	22,18555
11,12093	30	22,15527	22,15527
11,12895	27	22,12402	22,12402
11,13697	22	22,10938	22,10938
11,14498	17	22,0918	22,0918
11,153	28	22,06738	22,06738
11,16102	19	22,03809	22,03809
11,16904	21	22,00586	22,00586
11,17706	24	21,96973	21,96973
11,18507	23	21,93164	21,93164
11,19309	28	21,89258	21,89258
11,20111	21	21,85645	21,85645
11,20913	23	21,81543	21,81543
11,21715	23	21,7666	21,7666
11,22517	22	21,71387	21,71387
11,23318	21	21,66113	21,66113
11,2412	19	21,64844	21,64844
11,24922	22	21,63477	21,63477
11,25724	27	21,62109	21,62109
11,26526	23	21,60645	21,60645
11,27327	15	21,57227	21,57227
11,28129	25	21,5293	21,5293
11,28931	23	21,48633	21,48633
11,29733	20	21,57227	21,57227
11,30535	18	21,65625	21,65625
11,31336	24	21,74023	21,74023
11,32138	21	21,82227	21,82227
11,3294	20	21,89844	21,89844
11,33742	24	21,97168	21,97168
11,34544	25	22,04199	22,04199
11,35345	26	22,11133	22,11133
11,36147	24	22,18066	22,18066
11,36949	22	22,24414	22,24414
11,37751	22	22,30469	22,30469
11,38553	23	22,36426	22,36426
11,39355	17	22,42383	22,42383
11,40156	32	22,4834	22,4834
11,40958	23	22,53906	22,53906
11,4176	21	22,59277	22,59277
11,42562	25	22,63574	22,63574
11,43364	23	22,67285	22,67285
11,44165	20	22,70996	22,70996
11,44967	15	22,79785	22,79785
11,45769	36	22,87988	22,87988
11,46571	30	22,95605	22,95605
11,47373	22	23,0293	23,0293
11,48174	19	23,09668	23,09668
11,48976	23	23,16016	23,16016
11,49778	24	23,22266	23,22266
11,5058	27	23,28418	23,28418
11,51382	21	23,3457	23,3457
11,52184	26	23,40137	23,40137
11,52985	31	23,45508	23,45508
11,53787	27	23,50879	23,50879
11,54589	20	23,5752	23,5752
11,55391	23	23,63867	23,63867
11,56193	22	23,70215	23,70215
11,56994	28	23,76172	23,76172
11,57796	29	23,82031	23,82031
11,58598	24	23,87891	23,87891
11,594	17	23,93555	23,93555
11,60202	33	23,99023	23,99023
11,61003	26	24,04297	24,04297
11,61805	28	24,09473	24,09473
11,62607	32	24,14453	24,14453
11,63409	28	24,19043	24,19043
11,64211	21	24,2334	24,23438
11,65013	26	24,27734	24,27832
11,65814	25	24,33887	24,33984
11,66616	28	24,38965	24,3916
11,67418	29	24,44043	24,44238
11,6822	30	24,49414	24,49805
11,69022	27	24,54883	24,55371
11,69823	23	24,59082	24,59766
11,70625	17	24,62598	24,63574
11,71427	24	24,66211	24,6748
11,72229	23	24,71094	24,72754
11,73031	23	24,74219	24,76465
11,73833	31	24,77441	24,80371
11,74634	26	24,87109	24,90918
11,75436	24	24,95703	25,00586
11,76238	29	25,04297	25,10547
11,7704	33	25,125	25,20508
11,77842	19	25,20117	25,30273
11,78643	20	25,26953	25,39551
11,79445	25	25,33008	25,48633
11,80247	26	25,38867	25,58105
11,81049	26	25,43457	25,66797
11,81851	41	25,47363	25,75586
11,82652	23	25,5127	25,85059
11,83454	19	25,62695	26,02832
11,84256	26	25,72656	26,19922
11,85058	35	25,81934	26,37109
11,8586	25	25,90234	26,54102
11,86662	16	25,97949	26,71191
11,87463	30	26,05371	26,8877
11,88265	24	26,12695	27,06836
11,89067	25	26,2002	27,25293
11,89869	34	26,27637	27,44434
11,90671	28	26,35059	27,63574
11,91472	26	26,42383	27,82617
11,92274	28	26,49219	28,00879
11,93076	31	26,55859	28,18457
11,93878	29	26,61621	28,3457
11,9468	32	26,66992	28,49316
11,95481	30	26,72168	28,62793
11,96283	32	26,77246	28,74902
11,97085	32	26,82422	28,85449
11,97887	31	26,86426	28,93359
11,98689	29	26,89648	28,9873
11,9949	30	26,92773	29,02344
12,00292	31	26,99902	29,08008
12,01094	31	27,04199	29,0918
12,01896	26	27,08398	29,08594
12,02698	25	27,125	29,06445
12,035	22	27,16699	29,0293
12,04301	20	27,16895	28,94238
12,05103	31	27,13672	28,81055
12,05905	29	27,10449	28,67188
12,06707	26	27,37891	28,83496
12,07509	32	27,62793	28,96875
12,0831	33	27,87012	29,09473
12,09112	28	28,08594	29,19629
12,09914	29	28,29004	29,28711
12,10716	29	28,46289	29,35449
12,11518	39	28,62207	29,41309
12,12319	24	28,78125	29,47949
12,13121	28	29,01465	29,62988
12,13923	33	29,24023	29,78125
12,14725	27	29,44922	29,92676
12,15527	41	29,64844	30,07617
12,16329	35	29,83789	30,22754
12,1713	46	30,01758	30,38477
12,17932	20	30,19336	30,55176
12,18734	43	30,36328	30,73242
12,19536	47	30,52441	30,92285
12,20338	40	30,67969	31,13281
12,21139	33	30,82617	31,35938
12,21941	45	30,9668	31,61426
12,22743	43	31,10742	31,9082
12,23545	24	31,25293	32,25293
12,24347	49	31,38477	32,63965
12,25148	66	31,51758	33,09277
12,2595	56	31,65723	33,63086
12,26752	63	31,7959	34,26172
12,27554	47	31,91992	34,9834
12,28356	46	32,01758	35,80273
12,29158	60	32,11426	36,76465
12,29959	49	32,35547	38,03027
12,30761	51	32,57422	39,4541
12,31563	57	32,79395	41,07715
12,32365	45	33,02344	42,92578
12,33167	64	33,24902	45
12,33968	61	33,45117	47,29688
12,3477	64	33,64258	49,83496
12,35572	85	33,83496	52,62988
12,36374	57	34,03809	55,69043
12,37176	82	34,23633	58,99023
12,37978	75	34,43164	62,51465
12,38779	87	34,625	66,23828
12,39581	85	34,81641	70,12891
12,40383	82	35,00195	74,1377
12,41185	104	35,18457	78,21777
12,41987	83	35,36328	82,31152
12,42788	100	35,53809	86,34961
12,4359	100	35,70898	90,26855
12,44392	86	35,875	93,99316
12,45194	89	36,03809	97,45313
12,45996	93	36,20117	100,583
12,46797	102	36,35645	103,3076
12,47599	87	36,50684	105,5732
12,48401	102	36,6582	107,334
12,49203	95	36,81934	108,5615
12,50005	101	36,98145	109,2207
12,50807	111	37,13086	109,2861
12,51608	88	37,26758	108,7598
12,5241	101	37,4043	107,6719
12,53212	120	37,59766	106,1064
12,54014	79	37,77637	104,0381
12,54816	103	37,95605	101,5332
12,55617	85	38,18164	98,7002
12,56419	89	38,40137	95,55957
12,57221	102	38,60547	92,17285
12,58023	84	38,80078	88,625
12,58825	79	38,99609	85,00195
12,59626	86	39,18164	81,36816
12,60428	65	39,36328	77,79785
12,6123	75	39,5459	74,36328
12,62032	74	39,75684	71,14941
12,62834	64	39,96289	68,17578
12,63635	67	40,16113	65,48047
12,64437	76	40,35449	63,10449
12,65239	59	40,54492	61,07813
12,66041	55	40,73047	59,4209
12,66843	78	40,91309	58,14844
12,67645	69	41,09375	57,27246
12,68446	70	41,26953	56,79199
12,69248	48	41,44336	56,70898
12,7005	76	41,61133	57,0127
12,70852	50	41,77637	57,69727
12,71654	75	41,94238	58,75098
12,72455	78	42,12012	60,16602
12,73257	67	42,29785	61,90918
12,74059	77	42,4707	63,94727
12,74861	75	42,64063	66,25195
12,75663	80	42,80566	68,78613
12,76464	90	42,96875	71,51074
12,77266	87	43,13184	74,38574
12,78068	101	43,31836	77,38477
12,7887	89	43,49805	80,42773
12,79672	71	43,6748	83,46387
12,80474	96	43,84961	86,43848
12,81275	106	44,02441	89,30078
12,82077	99	44,21777	92,01172
12,82879	93	44,40332	94,49609
12,83681	111	44,58594	96,70996
12,84483	100	44,76465	98,61133
12,85284	107	44,94238	100,1689
12,86086	102	45,11914	101,3545
12,86888	74	45,2959	102,1514
12,8769	116	45,47168	102,5518
12,88492	118	45,6377	102,5469
12,89293	108	45,7998	102,1553
12,90095	107	45,95996	101,3975
12,90897	86	46,11914	100,3047
12,91699	98	46,2793	98,91602
12,92501	97	46,4541	97,28906
12,93303	92	46,62598	95,45508
12,94104	89	46,7959	93,46484
12,94906	82	46,95215	91,36328
12,95708	100	47,10254	89,20996
12,9651	97	47,24512	87,05957
12,97312	77	47,38574	84,96777
12,98113	99	47,52539	82,98438
12,98915	78	47,71387	81,20117
12,99717	87	47,88281	79,58984
13,00519	90	48,05273	78,20215
13,01321	94	48,22168	77,06445
13,02122	92	48,37988	76,18359
13,02924	81	48,52148	75,56836
13,03726	90	48,65527	75,23242
13,04528	102	48,78906	75,18359
13,0533	83	48,96484	75,45605
13,06132	89	49,10449	75,95703
13,06933	91	49,24316	76,70508
13,07735	97	49,4873	77,7793
13,08537	97	49,71777	79,0332
13,09339	96	49,91113	80,41016
13,10141	106	50,08789	81,8916
13,10942	105	50,26465	83,45801
13,11744	115	50,47949	85,10645
13,12546	102	50,68555	86,74707
13,13348	120	50,88574	88,34473
13,1415	127	51,06934	89,84961
13,14952	110	51,24512	91,23242
13,15753	126	51,41699	92,46582
13,16555	125	51,58594	93,52246
13,17357	112	51,75586	94,38184
13,18159	105	51,91309	95,0127
13,18961	104	52,06348	95,40918
13,19762	97	52,20898	95,57031
13,20564	109	52,35254	95,49805
13,21366	121	52,49609	95,20313
13,22168	99	52,63086	94,6875
13,2297	108	52,75391	93,96777
13,23771	90	52,87793	93,0752
13,24573	98	53,02441	92,05762
13,25375	113	53,14258	90,89063
13,26177	121	53,26172	89,62988
13,26979	112	53,40137	88,32324
13,2778	101	53,54004	86,97363
13,28582	77	53,61719	85,54688
13,29384	101	53,66504	84,09473
13,30186	89	53,71289	82,66504
13,30988	87	54,0459	81,55762
13,31789	85	54,34277	80,46582
13,32591	71	54,61035	79,40137
13,33393	71	54,86133	78,38281
13,34195	70	55,09961	77,41797
13,34997	66	55,33398	76,5127
13,35799	77	55,55273	75,65723
13,366	70	55,76563	74,85645
13,37402	55	55,96973	74,10449
13,38204	69	56,1709	73,4043
13,39006	66	56,37109	72,75293
13,39808	63	56,55859	72,1377
13,40609	77	56,73926	71,5625
13,41411	56	56,89648	71,00879
13,42213	65	57,04199	70,4873
13,43015	75	57,18066	70,00684
13,43817	58	57,31445	69,56641
13,44619	54	57,44531	69,1709
13,4542	60	57,5498	68,79785
13,46222	64	57,64063	68,46191
13,47024	64	57,73145	68,17676
13,47826	51	57,88574	68,00586
13,48628	62	58	67,84668
13,49429	46	58,11523	67,73633
13,50231	55	58,23145	67,6748
13,51033	80	58,3291	67,6377
13,51835	54	58,36523	67,58203
13,52637	68	58,37109	67,53125
13,53438	69	58,37695	67,51465
13,5424	49	59,1543	68,29785
13,55042	76	59,89453	69,06738
13,55844	47	60,61816	69,8418
13,56646	64	61,32031	70,61133
13,57448	64	62,01367	71,38574
13,58249	60	62,71094	72,17578
13,59051	55	63,38965	72,95605
13,59853	57	64,06152	73,73633
13,60655	65	64,73633	74,52637
13,61457	71	65,47754	75,3877
13,62258	80	66,2168	76,25
13,6306	67	66,92773	77,08789
13,63862	74	67,62695	77,91406
13,64664	96	68,33008	78,74316
13,65466	71	69,02441	79,5625
13,66267	83	69,71191	80,36816
13,67069	75	70,39941	81,16699
13,67871	85	71,08984	81,95508
13,68673	83	71,78223	82,72949
13,69475	80	72,4668	83,47656
13,70277	91	73,15039	84,19824
13,71078	61	73,82227	84,87988
13,7188	78	74,49023	85,52637
13,72682	91	75,16211	86,14063
13,73484	82	75,82617	86,70996
13,74286	73	76,48926	87,23926
13,75087	76	77,1377	87,71289
13,75889	86	77,78027	88,14063
13,76691	73	78,42578	88,53125
13,77493	91	79,1582	88,97363
13,78295	101	79,87891	89,36816
13,79097	91	80,57422	89,70801
13,79898	87	81,25879	90,00977
13,807	94	81,94531	90,29395
13,81502	115	82,66016	90,58984
13,82304	94	83,3623	90,86328
13,83106	82	84,06055	91,12793
13,83907	106	84,75293	91,38867
13,84709	98	85,44531	91,65527
13,85511	94	86,13281	91,93066
13,86313	97	86,81934	92,2207
13,87115	114	87,49805	92,52344
13,87916	128	88,17383	92,84668
13,88718	97	88,84863	93,19824
13,8952	117	89,52246	93,57617
13,90322	119	90,19531	93,98535
13,91124	154	90,86523	94,42383
13,91925	125	91,52637	94,88477
13,92727	132	92,18359	95,375
13,93529	167	92,83887	95,89355
13,94331	148	93,49316	96,44141
13,95133	147	94,15039	97,01953
13,95934	189	94,80371	97,62012
13,96736	181	95,45215	98,2373
13,97538	213	96,10352	98,87598
13,9834	234	96,75586	99,53223
13,99142	196	97,40625	100,1973
13,99944	258	98,0498	100,8652
14,00745	271	98,69141	101,5342
14,01547	287	99,32422	102,1963
14,02349	318	99,95313	102,8516
14,03151	337	100,5811	103,501
14,03953	333	101,2012	104,1328
14,04754	335	101,8184	104,751
14,05556	397	102,4307	105,3525
14,06358	409	103,0391	105,9355
14,0716	439	103,6455	106,5029
14,07962	489	104,249	107,0508
14,08764	440	104,8486	107,5801
14,09565	482	105,4463	108,0938
14,10367	498	106,0352	108,5859
14,11169	527	106,6211	109,0635
14,11971	532	107,2031	109,5283
14,12773	542	107,7832	109,9834
14,13574	562	108,3623	110,4336
14,14376	545	108,9365	110,877
14,15178	543	109,5068	111,3164
14,1598	565	110,0762	111,7559
14,16782	495	110,6416	112,1973
14,17583	548	111,2041	112,6426
14,18385	471	111,7637	113,0918
14,19187	548	112,3184	113,5479
14,19989	532	112,8682	114,0088
14,20791	457	113,4131	114,4756
14,21593	479	113,9492	114,9482
14,22394	439	114,4824	115,4307
14,23196	420	115,0088	115,918
14,23998	381	115,5313	116,4141
14,248	380	116,0459	116,915
14,25602	389	116,5537	117,4209
14,26403	389	117,0586	117,9336
14,27205	351	117,5576	118,4502
14,28007	340	118,0537	118,9717
14,28809	301	118,5459	119,498
14,29611	308	119,0352	120,0264
14,30412	299	119,5225	120,5586
14,31214	271	120,0068	121,0898
14,32016	296	120,4844	121,6162
14,32818	285	120,958	122,1406
14,3362	232	121,4219	122,6533
14,34422	253	121,8809	123,1611
14,35223	243	122,3359	123,6611
14,36025	218	122,7871	124,1523
14,36827	219	123,2354	124,6367
14,37629	255	123,6777	125,1084
14,38431	249	124,1172	125,5713
14,39232	216	124,5508	126,0205
14,40034	240	124,9814	126,5488
14,40836	216	125,4033	127,0176
14,41638	209	125,8203	127,4961
14,4244	229	126,2334	127,9941
14,43242	245	126,6406	128,5254
14,44043	247	127,043	129,1113
14,44845	257	127,4375	129,7793
14,45647	210	127,8281	130,5703
14,46449	240	128,21	131,5371
14,47251	273	128,5879	132,9063
14,48052	251	128,959	134,5508
14,48854	273	129,3203	136,7119
14,49656	293	129,6777	139,5859
14,50458	300	130,0313	143,4268
14,5126	301	130,3818	148,5664
14,52061	293	130,7305	155,4395
14,52863	286	131,0723	164,5957
14,53665	330	131,4111	176,749
14,54467	337	131,749	192,8018
14,55269	386	132,082	213,8799
14,5607	401	132,4141	241,3945
14,56872	471	132,7383	277,0742
14,57674	535	133,0586	323,0479
14,58476	598	133,374	381,8867
14,59278	666	133,6855	456,6816
14,60079	724	133,9951	551,1064
14,60881	863	134,2979	669,4795
14,61683	901	134,5928	816,8418
14,62485	1164	134,8848	999,0107
14,63287	1308	135,1699	1222,615
14,64089	1548	135,4473	1495,145
14,6489	1811	135,7217	1824,951
14,65692	2276	135,9902	2221,231
14,66494	2690	136,2549	2693,992
14,67296	3168	136,5166	3253,957
14,68098	3725	136,7686	3912,439
14,68899	4438	137,0156	4681,193
14,69701	5327	137,2578	5572,179
14,70503	6034	137,4971	6597,305
14,71305	7333	137,7314	7768,109
14,72107	8653	137,957	9095,4
14,72908	9762	138,1797	10588,87
14,7371	11265	138,3955	12256,65
14,74512	13058	138,6084	14104,85
14,75314	14988	138,8193	16137,15
14,76116	17103	139,0234	18354,25
14,76918	19238	139,2236	20753,55
14,77719	21868	139,4238	23328,7
14,78521	24301	139,623	26069,28
14,79323	27686	139,8223	28960,57
14,80125	30288	140,0107	31983,42
14,80927	33402	140,1934	35114,2
14,81728	36946	140,3711	38324,94
14,8253	40128	140,5459	41583,53
14,83332	43637	140,7217	44854,15
14,84134	47210	140,8926	48097,79
14,84936	50137	141,0566	51272,89
14,85738	53692	141,2158	54336,2
14,86539	56874	141,3672	57243,66
14,87341	59582	141,5146	59951,38
14,88143	62359	141,6611	62416,75
14,88945	64527	141,8008	64599,43
14,89747	66649	141,9346	66462,48
14,90548	68941	142,0654	67973,4
14,9135	69879	142,1943	69104,96
14,92152	70448	142,3242	69836,1
14,92954	71203	142,4443	70152,51
14,93756	71076	142,5586	70047,14
14,94557	70732	142,6719	69520,46
14,95359	69951	142,7852	68580,46
14,96161	68777	142,8936	67242,49
14,96963	66954	142,9912	65528,88
14,97765	64998	143,085	63468,31
14,98567	62812	143,1787	61095,02
14,99368	60134	143,2715	58447,92
15,0017	56259	143,3604	55569,44
15,00972	53631	143,4375	52504,48
15,01774	50541	143,5078	49299,21
15,02576	46914	143,5791	45999,92
15,03377	43095	143,6523	42651,92
15,04179	39842	143,7256	39298,47
15,04981	36991	143,7852	35979,91
15,05783	33406	143,834	32732,94
15,06585	30332	143,8818	29589,96
15,07386	26881	143,9561	26578,73
15,08188	23857	144,0205	23721,99
15,0899	21259	144,0723	21037,51
15,09792	18669	144,1172	18538,12
15,10594	16543	144,1621	16231,92
15,11396	13991	144,2041	14122,66
15,12197	12215	144,2314	12210,09
15,12999	10539	144,2598	10490,54
15,13801	9035	144,3428	8957,439
15,14603	7617	144,4111	7601,751
15,15405	6340	144,4727	6412,673
15,16206	5260	144,5303	5378,104
15,17008	4610	144,5811	4485,119
15,1781	3784	144,627	3720,422
15,18612	3088	144,666	3070,701
15,19414	2625	144,7021	2522,96
15,20215	2146	144,7373	2064,758
15,21017	1776	144,7637	1684,394
15,21819	1513	144,7871	1371,059
15,22621	1212	144,8066	1114,899
15,23423	1009	144,8213	907,0674
15,24224	810	144,8262	739,707
15,25026	748	144,8252	605,9502
15,25828	613	144,8203	499,8496
15,2663	547	144,8105	416,3096
15,27432	445	144,7988	351,0215
15,28234	377	144,7764	300,3662
15,29035	360	144,75	261,3535
15,29837	301	144,7207	231,5273
15,30639	264	144,6904	208,8887
15,31441	270	144,6602	191,8291
15,32243	242	144,6211	179,0566
15,33044	266	144,541	169,5234
15,33846	226	144,4609	162,4746
15,34648	243	144,5889	157,502
15,3545	197	144,7021	153,9082
15,36252	201	144,7412	151,2695
15,37053	191	144,7422	149,2969
15,37855	177	144,7432	147,9482
15,38657	192	144,8223	147,0703
15,39459	172	144,8955	146,4688
15,40261	182	144,9463	146,0459
15,41063	169	144,9863	145,7549
15,41864	178	145,0088	145,5479
15,42666	149	145,0244	145,4033
15,43468	144	145,0391	145,3076
15,4427	163	145,0566	145,1191
15,45072	146	145,0713	145,126
15,45873	151	145,0566	145,1025
15,46675	137	145,0264	145,0654
15,47477	178	144,9961	145,0283
15,48279	145	145,0225	145,0498
15,49081	146	145,04	145,0615
15,49883	155	145,0225	145,04
15,50684	148	144,9873	145,0029
15,51486	141	144,9531	144,9648
15,52288	139	144,9492	144,959
15,5309	143	144,9453	144,9531
15,53892	150	144,9424	144,9482
15,54693	150	144,9385	144,9434
15,55495	157	144,9033	144,9072
15,56297	148	144,8193	144,8223
15,57099	135	144,7354	144,7383
15,57901	155	144,8633	144,8662
15,58702	129	144,9902	144,9932
15,59504	149	145,21	145,2139
15,60306	147	145,4004	145,4053
15,61108	162	145,5137	145,5205
15,6191	161	145,5879	145,5977
15,62712	157	145,6621	145,6758
15,63513	139	145,8682	145,8867
15,64315	157	146,0459	146,0723
15,65117	132	146,1621	146,1992
15,65919	173	146,249	146,3008
15,66721	164	146,335	146,4072
15,67522	177	146,5127	146,6133
15,68324	193	146,6709	146,8086
15,69126	167	146,8184	147,0059
15,69928	189	146,9502	147,2051
15,7073	215	147,0664	147,4102
15,71531	211	147,1748	147,6348
15,72333	201	147,2607	147,874
15,73135	219	147,335	148,1465
15,73937	212	147,4043	148,4717
15,74739	223	147,4707	148,8662
15,75541	247	147,5371	149,3486
15,76342	258	147,5811	149,9199
15,77144	243	147,6123	150,6113
15,77946	277	147,6445	151,4639
15,78748	272	147,6855	152,5205
15,7955	271	147,7148	153,7969
15,80351	246	147,7236	155,3252
15,81153	297	147,7236	157,1631
15,81955	305	147,7236	159,3711
15,82757	274	147,7656	162,0459
15,83559	288	147,7959	165,1924
15,8436	334	147,8184	168,877
15,85162	306	147,8232	173,1514
15,85964	311	147,8174	178,0879
15,86766	326	147,8076	183,7529
15,87568	342	147,7891	190,2012
15,88369	361	147,7607	197,4854
15,89171	348	147,7227	205,6484
15,89973	359	147,6768	214,7275
15,90775	334	147,6279	224,7461
15,91577	439	147,5664	235,6982
15,92379	376	147,499	247,5762
15,9318	439	147,4287	260,3457
15,93982	421	147,3574	273,9492
15,94784	427	147,2852	288,3057
15,95586	424	147,207	303,2988
15,96388	488	147,123	318,7959
15,97189	432	147,0342	334,6406
15,97991	444	146,9365	350,6484
15,98793	449	146,8291	366,6201
15,99595	502	146,7139	382,3408
16,00397	477	146,5898	397,585
16,01199	496	146,459	412,1201
16,02	484	146,3193	425,7109
16,02802	516	146,1748	438,1348
16,03604	498	146,0215	449,1699
16,04406	503	145,8652	458,624
16,05208	537	145,6992	466,3164
16,06009	541	145,5264	472,1035
16,06811	558	145,3496	475,877
16,07613	494	145,167	477,5586
16,08415	507	144,9775	477,1143
16,09217	468	144,7803	474,5439
16,10018	487	144,5781	469,8984
16,1082	448	144,3691	463,2588
16,11622	470	144,1533	454,7461
16,12424	450	143,9336	444,5156
16,13226	433	143,7031	432,7412
16,14027	393	143,4678	419,6318
16,14829	372	143,2285	405,4092
16,15631	399	142,9863	390,3027
16,16433	389	142,7432	374,5498
16,17235	353	142,4912	358,373
16,18037	346	142,2344	342,0039
16,18838	320	141,9736	325,6523
16,1964	304	141,7109	309,5166
16,20442	333	141,4473	293,7734
16,21244	313	141,168	278,5596
16,22046	271	140,8818	264,0117
16,22847	304	140,5869	250,2314
16,23649	261	140,2842	237,3467
16,24451	272	139,9775	225,3379
16,25253	257	139,6572	214,2656
16,26055	279	139,3301	204,1504
16,26856	239	138,9971	194,9902
16,27658	225	138,6602	186,7734
16,2846	242	138,3154	179,4717
16,29262	243	137,9658	173,0537
16,30064	219	137,6123	167,4912
16,30865	225	137,248	162,7432
16,31667	229	136,8799	158,791
16,32469	243	136,5068	155,6201
16,33271	224	136,1299	153,2314
16,34073	234	135,75	151,6475
16,34875	238	135,3584	150,9072
16,35676	228	134,9619	151,0977
16,36478	236	134,5615	152,3379
16,3728	244	134,1572	154,7979
16,38082	312	133,752	158,7012
16,38884	270	133,3389	164,3301
16,39685	259	132,9229	172,0527
16,40487	334	132,499	182,3135
16,41289	316	132,0703	195,667
16,42091	343	131,6357	212,7676
16,42893	360	131,1982	234,3984
16,43694	395	130,7598	261,4727
16,44496	431	130,3154	295,041
16,45298	491	129,8682	336,3086
16,461	526	129,417	386,627
16,46902	587	128,9639	447,5088
16,47704	658	128,5078	520,6094
16,48505	828	128,04	607,71
16,49307	890	127,5654	710,7266
16,50109	1012	127,083	831,6641
16,50911	1085	126,5977	972,5713
16,51713	1345	126,1104	1135,519
16,52514	1508	125,6152	1322,518
16,53316	1744	125,1162	1535,48
16,54118	1918	124,6104	1776,133
16,5492	2314	124,1035	2045,943
16,55722	2583	123,5967	2346,037
16,56524	2800	123,0918	2677,104
16,57325	3236	122,583	3039,309
16,58127	3618	122,0645	3432,221
16,58929	3929	121,541	3854,748
16,59731	4548	121,0186	4305,064
16,60533	4992	120,4883	4780,555
16,61334	5484	119,9521	5277,813
16,62136	5985	119,417	5792,639
16,62938	6683	118,8896	6320,053
16,6374	7088	118,3604	6854,343
16,64542	7585	117,8193	7389,156
16,65343	8222	117,2715	7917,632
16,66145	8699	116,7207	8432,519
16,66947	9165	116,165	8926,332
16,67749	9649	115,6064	9391,551
16,68551	9935	115,0488	9820,8
16,69353	10339	114,4854	10207,04
16,70154	10649	113,9121	10543,78
16,70956	10834	113,334	10825,29
16,71758	11112	112,7539	11046,72
16,7256	11317	112,1719	11204,3
16,73362	11391	111,5752	11295,43
16,74163	11146	110,9707	11318,77
16,74965	11217	110,3682	11274,32
16,75767	11053	109,8076	11163,43
16,76569	10901	109,2373	10988,64
16,77371	10374	108,6514	10753,72
16,78172	10253	108,0557	10463,58
16,78974	10061	107,4551	10124,04
16,79776	9432	106,835	9741,699
16,80578	9052	106,2041	9323,754
16,8138	8556	105,5762	8877,777
16,82182	8044	104,9941	8411,544
16,82983	7626	104,4131	7932,699
16,83785	7191	103,8232	7448,69
16,84587	6631	103,2295	6966,565
16,85389	6142	102,6084	6492,777
16,86191	5637	101,9756	6033,121
16,86992	5226	101,3447	5592,59
16,87794	5063	100,7236	5175,311
16,88596	4506	100,0977	4784,48
16,89398	4290	99,42285	4422,359
16,902	3916	98,72461	4090,389
16,91002	3660	98,02832	3789,168
16,91803	3390	97,5625	3518,721
16,92605	3098	97,05078	3277,882
16,93407	2910	96,50488	3065,177
16,94209	2686	95,94141	2878,654
16,95011	2615	95,36523	2715,972
16,95812	2462	94,78125	2574,524
16,96614	2401	94,19531	2451,547
16,97416	2404	93,60938	2344,212
16,98218	2246	93,02539	2249,727
16,9902	2195	92,44727	2165,408
16,99821	2167	91,86035	2088,74
17,00623	2059	91,25977	2017,444
17,01425	1996	90,65234	1949,528
17,02227	1972	90,04785	1883,302
17,03029	1893	89,42773	1817,363
17,03831	1989	88,7998	1750,648
17,04632	1793	88,16699	1682,397
17,05434	1686	87,53125	1612,142
17,06236	1644	86,89648	1539,674
17,07038	1447	86,2627	1465,021
17,0784	1485	85,63184	1388,406
17,08641	1417	84,97363	1310,187
17,09443	1262	84,29688	1230,88
17,10245	1259	83,62305	1151,103
17,11047	1107	82,93457	1071,482
17,11849	1074	82,22656	992,6816
17,1265	1022	81,48438	915,3389
17,13452	891	80,72754	840,0908
17,14254	769	79,97363	767,5225
17,15056	737	79,60156	698,5039
17,15858	705	79,17285	633,0107
17,1666	583	78,7168	571,3975
17,17461	514	78,23535	513,9033
17,18263	487	77,74219	460,6904
17,19065	411	77,25098	411,8359
17,19867	361	76,74219	367,3096
17,20669	330	76,21289	327,0283
17,2147	277	75,68457	290,876
17,22272	269	75,21289	258,7188
17,23074	229	74,72754	230,2617
17,23876	180	74,22949	205,2539
17,24678	181	73,71582	183,4189
17,2548	158	73,18652	164,4531
17,26281	159	72,65137	148,1416
17,27083	137	72,10938	134,167
17,27885	111	71,53125	122,2354
17,28687	122	70,9375	112,1113
17,29489	91	70,32715	103,5576
17,3029	98	69,70996	96,36523
17,31092	87	69,0957	90,34668
17,31894	64	68,47656	85,31445
17,32696	83	67,83594	81,0957
17,33498	79	67,19824	77,57715
17,34299	59	66,5498	74,625
17,35101	83	65,87891	72,12305
17,35903	73	65,17773	69,97754
17,36705	68	64,46484	68,13281
17,37507	63	63,75488	66,54297
17,38308	71	63,58887	65,69727
17,3911	75	63,59961	65,1875
17,39912	66	63,61133	64,80176
17,40714	65	63,7793	64,6709
17,41516	55	63,91602	64,58496
17,42317	56	64,05371	64,55859
17,43119	70	64,19141	64,57715
17,43921	68	64,30176	64,60547
17,44723	56	64,38477	64,63086
17,45525	57	64,45215	64,66406
17,46326	82	64,52051	64,71289
17,47128	64	64,6748	64,86328
17,4793	67	64,79785	64,99316
17,48732	79	64,90527	65,11719
17,49534	77	64,99707	65,23438
17,50336	62	65,08008	65,35254
17,51137	74	65,16016	65,47461
17,51939	67	65,2334	65,60059
17,52741	68	65,30469	65,72852
17,53543	65	65,36523	65,86328
17,54345	88	65,4209	66,00488
17,55146	64	65,47754	66,15723
17,55948	78	65,53516	66,3252
17,5675	70	65,58789	66,50195
17,57552	71	65,62207	66,67578
17,58354	79	65,64648	66,8584
17,59155	64	65,66699	67,05371
17,59957	70	65,68164	67,2627
17,60759	65	65,69336	67,4873
17,61561	97	65,67969	67,70898
17,62363	74	65,6543	67,93945
17,63165	65	65,62891	68,19141
17,63966	75	65,81348	68,67383
17,64768	83	65,97559	69,1543
17,6557	58	66,10156	69,61816
17,66372	80	66,2002	70,07129
17,67174	72	66,28516	70,52734
17,67975	86	66,35059	70,97754
17,68777	83	66,40625	71,42773
17,69579	88	66,46191	71,88379
17,70381	82	66,59766	72,42188
17,71183	70	66,71387	72,93848
17,71984	72	66,81934	73,43848
17,72786	75	66,91992	73,91992
17,73588	87	67,00977	74,375
17,7439	76	67,09375	74,80078
17,75192	75	67,16797	75,18848
17,75994	74	67,23145	75,53516
17,76795	77	67,29102	75,83789
17,77597	89	67,34375	76,09473
17,78399	88	67,39453	76,30371
17,79201	89	67,44531	76,46484
17,80003	55	67,49414	76,57422
17,80804	71	67,53125	76,62207
17,81606	87	67,56348	76,6123
17,82408	83	67,58691	76,54297
17,8321	63	67,60645	76,4209
17,84012	56	67,625	76,24902
17,84813	77	67,6416	76,03223
17,85615	73	67,6582	75,77441
17,86417	75	67,67969	75,48535
17,87219	83	67,80859	75,27246
17,88021	65	67,93555	75,03125
17,88823	103	68,03613	74,74316
17,89624	68	68,12402	74,42578
17,90426	72	68,21191	74,09863
17,91228	86	68,2832	73,75098
17,9203	74	68,34375	73,39258
17,92832	83	68,40527	73,04004
17,93633	76	68,51758	72,74707
17,94435	79	68,62793	72,46582
17,95237	68	68,72266	72,18457
17,96039	73	68,80957	71,91406
17,96841	73	68,87695	71,64355
17,97643	93	68,93262	71,38574
17,98444	88	68,98926	71,15039
17,99246	73	69,05078	70,94336
18,00048	77	69,10742	70,75586
18,0085	79	69,14355	70,57031
18,01652	72	69,16992	70,39746
18,02453	66	69,19531	70,24609
18,03255	79	69,27637	70,16992
18,04057	72	69,34473	70,10059
18,04859	66	69,41113	70,0459
18,05661	55	69,43945	69,96973
18,06462	80	69,44922	69,88965
18,07264	73	69,44434	69,80762
18,08066	77	69,43164	69,73047
18,08868	68	69,41895	69,66309
18,0967	67	69,59961	69,79688
18,10472	79	69,77441	69,93457
18,11273	71	69,94824	70,07617
18,12075	67	70,12012	70,22168
18,12877	76	70,26367	70,34473
18,13679	68	70,39258	70,45703
18,14481	77	70,52246	70,57227
18,15282	66	70,67285	70,71191
18,16084	71	70,82422	70,85449
18,16886	75	70,9668	70,98926
18,17688	58	71,10449	71,12207
18,1849	70	71,22168	71,23535
18,19291	75	71,32813	71,33887
18,20093	80	71,43555	71,44238
18,20895	76	71,71875	71,72461
18,21697	63	72,1377	72,1416
18,22499	80	72,55273	72,55566
18,23301	79	72,96094	72,96289
18,24102	69	73,35156	73,35352
18,24904	85	73,73535	73,73633
18,25706	80	74,1123	74,11328
18,26508	62	74,4873	74,48828
18,2731	83	74,8623	74,86328
18,28111	63	75,27148	75,27246
18,28913	66	75,66992	75,66992
18,29715	72	76,06348	76,06348
18,30517	91	76,45117	76,45117
18,31319	101	76,83691	76,83691
18,32121	82	77,22168	77,22168
18,32922	76	77,60254	77,60254
18,33724	79	77,98242	77,98242
18,34526	76	78,35645	78,35645
18,35328	92	78,72949	78,72949
18,3613	91	79,10254	79,10254
18,36931	81	79,47656	79,47656
18,37733	76	79,84668	79,84668
18,38535	100	80,2168	80,2168
18,39337	90	80,5791	80,58008
18,40139	77	80,93945	80,94043
18,4094	102	81,30078	81,30176
18,41742	67	81,66992	81,66992
18,42544	74	82,0293	82,03027
18,43346	73	82,38965	82,39063
18,44148	97	82,7832	82,78418
18,4495	89	83,16992	83,17188
18,45751	81	83,55176	83,55469
18,46553	75	83,92773	83,93164
18,47355	79	84,30078	84,30469
18,48157	94	84,6709	84,67773
18,48959	93	85,04102	85,04883
18,4976	75	85,41113	85,4209
18,50562	89	85,77637	85,78906
18,51364	102	86,13965	86,15527
18,52166	71	86,50391	86,52344
18,52968	111	86,86621	86,8916
18,53769	103	87,22852	87,25977
18,54571	80	87,58789	87,62598
18,55373	98	87,94629	87,99316
18,56175	90	88,30469	88,3623
18,56977	86	88,65918	88,72949
18,57779	90	89,01172	89,09668
18,5858	78	89,3623	89,46484
18,59382	85	89,71289	89,83594
18,60184	112	90,06348	90,21094
18,60986	76	90,41113	90,58594
18,61788	78	90,75684	90,96387
18,62589	112	91,10449	91,34668
18,63391	97	91,44922	91,7334
18,64193	95	91,79395	92,125
18,64995	89	92,13379	92,5166
18,65797	96	92,47168	92,91309
18,66598	92	92,80859	93,31445
18,674	94	93,14355	93,7207
18,68202	96	93,47754	94,13281
18,69004	111	93,80859	94,54883
18,69806	99	94,1377	94,96973
18,70607	114	94,4668	95,39746
18,71409	92	94,79492	95,83105
18,72211	100	95,12012	96,26758
18,73013	112	95,44531	96,70898
18,73815	94	95,76953	97,15625
18,74616	103	96,09473	97,60742
18,75418	121	96,41895	98,06055
18,7622	130	96,74023	98,51465
18,77022	102	97,06055	98,96777
18,77824	117	97,375	99,41602
18,78626	115	97,6875	99,86035
18,79427	122	97,99805	100,2998
18,80229	118	98,30664	100,7344
18,81031	114	98,61621	101,1631
18,81833	130	98,92285	101,582
18,82635	131	99,22754	101,9902
18,83436	133	99,52832	102,3848
18,84238	109	99,82715	102,7676
18,8504	125	100,127	103,1377
18,85842	117	100,4307	103,498
18,86644	130	100,7314	103,8418
18,87445	137	101,0273	104,168
18,88247	132	101,3193	104,4736
18,89049	125	101,6094	104,7627
18,89851	134	101,8945	105,0332
18,90653	162	102,1787	105,2881
18,91455	133	102,457	105,5244
18,92256	136	102,7344	105,7471
18,93058	150	103,0068	105,9551
18,9386	131	103,2764	106,1514
18,94662	136	103,5449	106,3389
18,95464	126	103,8076	106,5176
18,96265	150	104,0674	106,6914
18,97067	144	104,3271	106,8652
18,97869	147	104,583	107,04
18,98671	155	104,8379	107,2227
18,99473	150	105,0908	107,4131
19,00274	171	105,3408	107,6191
19,01076	139	105,5869	107,8408
19,01878	151	105,8311	108,0869
19,0268	156	106,0703	108,3584
19,03482	171	106,3066	108,666
19,04284	167	106,541	109,0156
19,05085	175	106,7734	109,4141
19,05887	178	107,0039	109,8691
19,06689	167	107,2305	110,3896
19,07491	170	107,4531	110,9824
19,08293	172	107,6738	111,6592
19,09094	179	107,8896	112,4297
19,09896	184	108,1025	113,3057
19,10698	177	108,3135	114,2988
19,115	194	108,5225	115,4229
19,12302	182	108,7285	116,6885
19,13103	174	108,9307	118,1084
19,13905	181	109,1289	119,6943
19,14707	191	109,3232	121,458
19,15509	192	109,5137	123,4121
19,16311	185	109,6973	125,5645
19,17113	211	109,877	127,9268
19,17914	223	110,0557	130,5078
19,18716	201	110,2285	133,3115
19,19518	240	110,3984	136,3428
19,2032	212	110,5664	139,6025
19,21122	258	110,7314	143,0869
19,21923	251	110,8945	146,7891
19,22725	245	111,0527	150,6963
19,23527	258	111,209	154,7969
19,24329	229	111,3623	159,0703
19,25131	262	111,5137	163,4941
19,25933	274	111,6602	168,0361
19,26734	273	111,8027	172,666
19,27536	281	111,9434	177,3496
19,28338	247	112,0791	182,0439
19,2914	290	112,2119	186,7061
19,29942	279	112,3398	191,29
19,30743	283	112,4619	195,7471
19,31545	318	112,5811	200,0322
19,32347	275	112,6982	204,0957
19,33149	303	112,8105	207,8896
19,33951	280	112,9209	211,3691
19,34752	284	113,0283	214,4902
19,35554	307	113,1328	217,2139
19,36356	309	113,2354	219,5078
19,37158	296	113,3311	221,3389
19,3796	270	113,4248	222,6885
19,38762	296	113,5156	223,54
19,39563	278	113,5986	223,8838
19,40365	294	113,6787	223,7227
19,41167	307	113,7559	223,0664
19,41969	276	113,8311	221,9316
19,42771	297	113,9053	220,3457
19,43572	248	113,9746	218,3359
19,44374	266	114,041	215,9434
19,45176	247	114,1074	213,2139
19,45978	271	114,167	210,1953
19,4678	254	114,2236	206,9434
19,47581	262	114,2783	203,5176
19,48383	238	114,3301	199,9785
19,49185	256	114,376	196,3838
19,49987	250	114,417	192,7959
19,50789	265	114,4551	189,2764
19,51591	227	114,4902	185,8838
19,52392	252	114,5186	182,667
19,53194	218	114,5439	179,6816
19,53996	243	114,5625	176,9678
19,54798	234	114,5781	174,5684
19,556	219	114,5918	172,5176
19,56401	232	114,6016	170,8389
19,57203	262	114,6074	169,5527
19,58005	230	114,6123	168,6709
19,58807	226	114,6143	168,1973
19,59609	251	114,6152	168,1309
19,6041	222	114,6113	168,4561
19,61212	244	114,6035	169,1602
19,62014	265	114,5947	170,2197
19,62816	242	114,5811	171,6045
19,63618	239	114,5625	173,2793
19,6442	235	114,541	175,2061
19,65221	220	114,5166	177,3428
19,66023	240	114,4893	179,6445
19,66825	244	114,459	182,0625
19,67627	215	114,4248	184,5449
19,68429	237	114,3887	187,0459
19,6923	250	114,3486	189,5117
19,70032	244	114,3066	191,8965
19,70834	225	114,2637	194,1533
19,71636	228	114,2178	196,2383
19,72438	256	114,1699	198,1104
19,7324	243	114,1182	199,7305
19,74041	245	114,0615	201,0674
19,74843	260	114,002	202,0967
19,75645	235	113,9385	202,7969
19,76447	226	113,8721	203,1533
19,77249	219	113,7988	203,1563
19,7805	250	113,7217	202,8047
19,78852	238	113,6426	202,1045
19,79654	256	113,5586	201,0635
19,80456	219	113,4727	199,6992
19,81258	258	113,3828	198,0303
19,82059	250	113,291	196,084
19,82861	227	113,1982	193,8906
19,83663	236	113,1045	191,4834
19,84465	216	113,0107	188,8955
19,85267	255	112,9092	186,1572
19,86069	249	112,8047	183,3096
19,8687	259	112,6963	180,3906
19,87672	272	112,5879	177,4385
19,88474	277	112,4775	174,4893
19,89276	292	112,3623	171,5693
19,90078	320	112,2432	168,7139
19,90879	347	112,1211	165,9502
19,91681	315	111,998	163,3027
19,92483	353	111,875	160,792
19,93285	352	111,7471	158,4316
19,94087	392	111,6172	156,2344
19,94888	395	111,4824	154,2051
19,9569	442	111,3447	152,3486
19,96492	452	111,2061	150,668
19,97294	475	111,0654	149,1572
19,98096	488	110,9219	147,8066
19,98897	537	110,7744	146,6074
19,99699	542	110,625	145,5469
20,00501	568	110,4756	144,6123
20,01303	611	110,3154	143,7764
20,02105	661	110,1494	143,0254
20,02906	689	109,9834	142,3496
20,03708	689	109,8359	141,7461
20,0451	762	109,6865	141,1777
20,05312	766	109,5322	140,623
20,06114	820	109,373	140,0674
20,06915	852	109,2119	139,498
20,07717	876	109,0479	138,8994
20,08519	947	108,8691	138,25
20,09321	983	108,6836	137,5488
20,10123	975	108,4932	136,7891
20,10925	1011	108,2988	135,9688
20,11726	993	108,1045	135,0879
20,12528	1095	107,9111	134,1484
20,1333	1013	107,7031	133,1348
20,14132	1077	107,4961	132,0674
20,14934	1031	107,3105	130,9736
20,15735	1145	107,123	129,835
20,16537	1149	106,8887	128,6152
20,17339	1160	106,6328	127,3486
20,18141	1113	106,376	126,0674
20,18943	1163	106,2803	124,9424
20,19744	1076	106,166	123,8047
20,20546	1101	106,001	122,6328
20,21348	1059	105,8115	121,4629
20,2215	1084	105,6221	120,3291
20,22952	1038	105,4814	119,2891
20,23754	1073	105,3291	118,29
20,24555	1002	105,1699	117,3457
20,25357	917	104,9961	116,4512
20,26159	966	104,8154	115,6191
20,26961	845	104,6309	114,8584
20,27763	890	104,4355	114,1611
20,28564	803	104,2344	113,5342
20,29366	764	104,0283	112,9785
20,30168	759	103,8174	112,4912
20,3097	702	103,6035	112,0723
20,31772	643	103,3779	111,71
20,32574	586	103,1465	111,4043
20,33375	559	102,9121	111,1523
20,34177	528	102,6758	110,9512
20,34979	496	102,4414	110,7949
20,35781	473	102,208	110,6787
20,36583	459	101,9492	110,5674
20,37384	391	101,6904	110,4795
20,38186	390	101,4375	110,4131
20,38988	331	101,1836	110,3525
20,3979	308	100,874	110,2393
20,40592	270	100,5361	110,0928
20,41393	289	100,1992	109,9346
20,42195	236	100,1611	110,0586
20,42997	226	100,085	110,1221
20,43799	181	99,95703	110,1084
20,44601	209	99,80371	110,0381
20,45403	171	99,65039	109,9355
20,46204	153	99,51074	109,8125
20,47006	149	99,3623	109,6436
20,47808	148	99,20801	109,4336
20,4861	154	99,05273	109,1846
20,49412	123	98,88867	108,8936
20,50213	120	98,7207	108,5654
20,51015	115	98,53516	108,1885
20,51817	123	98,33984	107,7744
20,52619	114	98,1377	107,3291
20,53421	123	97,93164	106,8584
20,54222	120	97,72363	106,3701
20,55024	114	97,50098	105,8535
20,55826	108	97,27148	105,3213
20,56628	103	97,0293	104,7715
20,5743	104	96,78027	104,2139
20,58232	99	96,53125	103,6602
20,59033	86	96,29199	103,1201
20,59835	94	96,02539	102,5625
20,60637	108	95,75879	102,0156
20,61439	93	95,49316	101,4824
20,62241	104	95,22754	100,9639
20,63042	109	94,90625	100,4063
20,63844	101	94,55664	99,83496
20,64646	93	94,20703	99,28125
20,65448	95	94,33691	99,22168
20,6625	92	94,4668	99,17773
20,67052	78	94,59863	99,15039
20,67853	98	94,73145	99,13672
20,68655	93	94,86035	99,13086
20,69457	85	94,98828	99,13281
20,70259	93	95,0918	99,11816
20,71061	116	95,18164	99,09766
20,71862	99	95,27246	99,08105
20,72664	99	95,45703	99,16211
20,73466	98	95,63281	99,23535
20,74268	88	95,76367	99,26465
20,7507	88	95,87109	99,27051
20,75871	111	95,97949	99,27441
20,76673	90	96,07324	99,26172
20,77475	107	96,13867	99,21875
20,78277	93	96,2041	99,17188
20,79079	101	96,33008	99,18457
20,79881	101	96,45117	99,18945
20,80682	97	96,4873	99,1084
20,81484	88	96,48047	98,98535
20,82286	101	96,47363	98,86133
20,83088	99	96,83496	99,1084
20,8389	94	97,14844	99,31055
20,84691	97	97,39844	99,45605
20,85493	102	97,61816	99,57813
20,86295	97	97,83789	99,70898
20,87097	91	98,07031	99,86328
20,87899	106	98,30371	100,0322
20,887	113	98,51953	100,1992
20,89502	95	98,71875	100,3672
20,90304	107	98,9043	100,542
20,91106	100	99,08105	100,7305
20,91908	102	99,24121	100,9287
20,9271	105	99,39355	101,1465
20,93511	114	99,52148	101,3691
20,94313	104	99,63574	101,6123
20,95115	100	99,74414	101,8838
20,95917	98	99,84961	102,1904
20,96719	117	99,95508	102,5371
20,9752	97	100,0322	102,8975
20,98322	94	100,0938	103,2852
20,99124	87	100,1553	103,7178
20,99926	102	100,4834	104,4619
21,00728	99	100,7861	105,2285
21,0153	99	101,0771	106,0283
21,02331	94	101,3555	106,8623
21,03133	102	101,6289	107,7344
21,03935	98	101,8818	108,6289
21,04737	124	102,125	109,5518
21,05539	108	102,3623	110,5059
21,0634	113	102,5811	111,4707
21,07142	106	102,79	112,4521
21,07944	116	102,9824	113,4365
21,08746	115	103,167	114,4258
21,09548	125	103,3516	115,4199
21,10349	113	103,5781	116,4531
21,11151	115	103,7822	117,4512
21,11953	108	103,9551	118,3984
21,12755	116	104,1123	119,3008
21,13557	103	104,2695	120,165
21,14359	104	104,5684	121,123
21,1516	138	104,8467	122,0049
21,15962	100	105,1221	122,8203
21,16764	131	105,3779	123,5469
21,17566	122	105,625	124,1885
21,18368	124	105,873	124,749
21,19169	114	106,1035	125,208
21,19971	113	106,3193	125,5654
21,20773	117	106,5254	125,8252
21,21575	131	106,7266	125,9932
21,22377	130	106,9277	126,0771
21,23178	129	107,123	126,0723
21,2398	103	107,2939	125,9678
21,24782	125	107,4639	125,793
21,25584	104	107,6738	125,5947
21,26386	106	107,876	125,335
21,27187	118	108,0342	124,9863
21,27989	131	108,1719	124,583
21,28791	135	108,3096	124,1543
21,29593	121	108,5537	123,8184
21,30395	126	108,7764	123,459
21,31196	132	108,9541	123,0615
21,31998	146	109,1094	122,6582
21,328	115	109,2646	122,2822
21,33602	112	109,498	122,0205
21,34404	126	109,7139	121,7852
21,35205	131	109,8955	121,5645
21,36007	110	110,0596	121,3838
21,36809	128	110,2236	121,2627
21,37611	109	110,418	121,2373
21,38413	138	110,5967	121,2607
21,39215	119	110,7568	121,333
21,40016	126	110,9082	121,4629
21,40818	129	111,0596	121,6572
21,4162	120	111,2393	121,9404
21,42422	137	111,3926	122,2559
21,43224	121	111,5322	122,6104
21,44025	120	111,6641	123,0029
21,44827	129	111,792	123,4316
21,45629	113	111,9199	123,8926
21,46431	123	112,0342	124,3662
21,47233	134	112,1348	124,8418
21,48034	118	112,2354	125,3252
21,48836	114	112,3545	125,8281
21,49638	129	112,4727	126,3223
21,5044	122	112,5645	126,7725
21,51242	135	112,6221	127,166
21,52044	147	112,6797	127,5273
21,52845	125	112,9434	128,0596
21,53647	126	113,1865	128,5283
21,54449	135	113,4004	128,9189
21,55251	110	113,5869	129,2314
21,56053	114	113,7598	129,4775
21,56854	140	113,917	129,6514
21,57656	139	114,0654	129,7598
21,58458	136	114,2061	129,8047
21,5926	132	114,3428	129,792
21,60062	143	114,4775	129,7236
21,60863	123	114,5947	129,5879
21,61665	143	114,7031	129,3984
21,62467	123	114,8037	129,1611
21,63269	138	114,8955	128,8799
21,64071	131	114,9824	128,5645
21,64873	118	115,0566	128,2109
21,65674	107	115,123	127,833
21,66476	130	115,1865	127,4404
21,67278	116	115,2383	127,0322
21,6808	118	115,2852	126,6191
21,68882	134	115,332	126,2129
21,69683	121	115,3701	125,8096
21,70485	139	115,4033	125,418
21,71287	143	115,4336	125,043
21,72089	145	115,4609	124,6895
21,72891	130	115,4863	124,3594
21,73693	132	115,4775	124,0234
21,74494	137	115,4521	123,7002
21,75296	145	115,4258	123,4063
21,76098	152	115,6221	123,3643
21,769	149	115,8018	123,335
21,77702	139	115,9736	123,3252
21,78503	169	116,1143	123,3086
21,79305	164	116,2383	123,2979
21,80107	190	116,3545	123,2998
21,80909	186	116,4648	123,3135
21,81711	180	116,5596	123,3242
21,82512	174	116,6367	123,3271
21,83314	182	116,7041	123,3281
21,84116	229	116,7607	123,3213
21,84918	221	116,8066	123,3037
21,8572	223	116,8477	123,2773
21,86522	227	116,8721	123,2305
21,87323	257	116,8887	123,168
21,88125	287	116,9043	123,0947
21,88927	283	116,9092	122,999
21,89729	283	116,9063	122,8838
21,90531	309	116,8975	122,75
21,91332	340	116,8857	122,5996
21,92134	267	116,8662	122,4287
21,92936	292	116,832	122,2314
21,93738	333	116,79	122,0146
21,9454	360	116,7373	121,7773
21,95341	349	116,6719	121,5176
21,96143	413	116,5996	121,2461
21,96945	372	116,5029	120,9443
21,97747	418	116,3936	120,6279
21,98549	390	116,2842	120,3105
21,99351	433	116,4199	120,2402
22,00152	388	116,5371	120,1543
22,00954	487	116,6445	120,0654
22,01756	480	116,7266	119,958
22,02558	463	116,7969	119,8467
22,0336	535	116,8604	119,7402
22,04161	481	116,915	119,6367
22,04963	506	116,9561	119,5332
22,05765	520	116,9717	119,417
22,06567	531	116,9746	119,3027
22,07369	530	116,9668	119,1914
22,08171	517	116,9473	119,082
22,08972	564	116,9209	118,9814
22,09774	559	116,8799	118,8789
22,10576	547	116,8311	118,7832
22,11378	540	116,7832	118,6992
22,1218	551	116,7227	118,6152
22,12981	550	116,6543	118,5322
22,13783	603	116,5762	118,4492
22,14585	558	116,4932	118,3691
22,15387	575	116,4043	118,2891
22,16189	576	116,2988	118,1982
22,1699	539	116,1855	118,1016
22,17792	518	116,0557	117,9932
22,18594	510	115,9141	117,873
22,19396	529	115,7666	117,7461
22,20198	507	115,5889	117,5879
22,21	462	115,3955	117,4121
22,21801	466	115,2031	117,2324
22,22603	483	115,2861	117,3252
22,23405	436	115,3428	117,3857
22,24207	414	115,3867	117,4268
22,25009	422	115,4072	117,4385
22,2581	410	115,416	117,4326
22,26612	373	115,4189	117,4141
22,27414	355	115,415	117,3818
22,28216	307	115,4004	117,3311
22,29018	291	115,3584	117,2471
22,29819	273	115,3027	117,1426
22,30621	274	115,2363	117,0225
22,31423	293	115,1563	116,8828
22,32225	262	115,0693	116,7305
22,33027	250	114,9727	116,5654
22,33829	230	114,8682	116,3887
22,3463	200	114,7578	116,2041
22,35432	211	114,6318	116,001
22,36234	194	114,4971	115,7891
22,37036	173	114,3584	115,5723
22,37838	188	114,2178	115,3545
22,38639	184	114,0674	115,1289
22,39441	171	113,8936	114,8838
22,40243	151	113,709	114,6299
22,41045	154	113,5088	114,3672
22,41847	152	113,3008	114,1016
22,42649	157	113,0928	113,8428
22,4345	135	112,8506	113,5596
22,44252	140	112,5928	113,2695
22,45054	151	112,334	112,9932
22,45856	135	112,3672	113,0234
22,46658	167	112,3643	113,0361
22,47459	149	112,3428	113,0527
22,48261	158	112,2969	113,0703
22,49063	167	112,2383	113,1094
22,49865	163	112,1729	113,1807
22,50667	194	112,1055	113,2969
22,51468	184	112,0313	113,4639
22,5227	230	111,9404	113,6846
22,53072	229	111,833	113,9707
22,53874	251	111,7158	114,3496
22,54676	250	111,5889	114,8389
22,55477	274	111,4541	115,4629
22,56279	298	111,3096	116,248
22,57081	307	111,1475	117,2188
22,57883	320	110,9785	118,418
22,58685	322	110,8008	119,8887
22,59486	372	110,6143	121,6748
22,60288	383	110,4229	123,832
22,6109	409	110,2236	126,415
22,61892	425	110,0195	129,4922
22,62694	447	109,7959	133,1182
22,63495	449	109,5625	137,3789
22,64297	503	109,3242	142,3613
22,65099	454	109,0791	148,1523
22,65901	557	108,8311	154,8496
22,66703	580	108,5518	162,5225
22,67505	611	108,2568	171,2881
22,68306	594	107,9629	181,2656
22,69108	629	107,9229	192,8135
22,6991	717	107,8594	205,7568
22,70712	715	107,7764	220,2031
22,71514	733	107,6758	236,2471
22,72315	700	107,5654	253,9854
22,73117	807	107,4473	273,499
22,73919	798	107,3252	294,8574
22,74721	831	107,2002	318,1094
22,75523	819	107,0645	343,2803
22,76324	797	106,9111	370,3711
22,77126	928	106,748	399,3779
22,77928	901	106,5762	430,2588
22,7873	888	106,3984	462,9482
22,79532	918	106,2168	497,3467
22,80334	953	106,0205	533,3125
22,81135	960	105,8164	570,6865
22,81937	994	105,6035	609,2686
22,82739	1033	105,3789	648,8262
22,83541	1013	105,1484	689,1035
22,84343	1048	104,9111	729,8047
22,85144	1073	104,6689	770,6162
22,85946	1054	104,417	811,1875
22,86748	1061	104,1582	851,1641
22,8755	1118	103,8975	890,1738
22,88352	1053	103,6279	927,8252
22,89153	1106	103,3545	963,7363
22,89955	1125	103,0576	997,5059
22,90757	1108	102,749	1028,772
22,91559	1099	102,4414	1057,19
22,92361	1099	102,3359	1082,632
22,93163	1124	102,2119	1104,569
22,93964	1139	102,0781	1122,746
22,94766	1085	101,9238	1136,926
22,95568	1087	101,7588	1146,938
22,9637	1031	101,5889	1152,656
22,97172	1073	101,417	1154,005
22,97973	1060	101,2441	1150,962
22,98775	983	101,0791	1143,563
22,99577	997	100,8975	1131,869
23,00379	985	100,708	1116,026
23,01181	964	100,5127	1096,223
23,01982	917	100,3125	1072,69
23,02784	876	100,1064	1045,705
23,03586	808	99,89063	1015,572
23,04388	825	99,66602	982,6348
23,0519	775	99,42969	947,2549
23,05992	746	99,18848	909,8203
23,06793	701	98,94238	870,7236
23,07595	712	98,68945	830,3584
23,08397	662	98,43262	789,1201
23,09199	621	98,16309	747,3838
23,10001	586	97,88672	705,5234
23,10802	604	97,6084	663,8887
23,11604	529	97,32813	622,8037
23,12406	500	97,04688	582,5635
23,13208	460	96,74414	543,4102
23,1401	445	96,43066	505,582
23,14812	427	96,11719	469,2871
23,15613	413	95,97754	434,8584
23,16415	356	95,81738	402,2256
23,17217	355	95,64746	371,4912
23,18019	308	95,45215	342,7021
23,18821	282	95,24609	315,9014
23,19622	291	95,03418	291,0957
23,20424	250	94,81836	268,2666
23,21226	263	94,60352	247,376
23,22028	212	94,41992	228,3906
23,2283	211	94,22363	211,1914
23,23631	201	94,02051	195,6953
23,24433	196	93,81445	181,8076
23,25235	182	93,60547	169,4219
23,26037	152	93,3877	158,4248
23,26839	163	93,16504	148,7109
23,27641	146	92,92773	140,1572
23,28442	143	92,68262	132,665
23,29244	144	92,43262	126,1328
23,30046	126	92,1748	120,4551
23,30848	115	91,90918	115,54
23,3165	116	91,64063	111,3027
23,32451	115	91,36035	107,6543
23,33253	93	91,07422	104,5244
23,34055	117	90,78613	101,8486
23,34857	94	90,49707	99,56836
23,35659	109	90,20898	97,63086
23,3646	83	89,92188	95,9873
23,37262	113	89,61328	94,5752
23,38064	100	89,30566	93,37988
23,38866	82	89,14941	92,52051
23,39668	83	88,97754	91,80469
23,4047	75	88,78516	91,20703
23,41271	102	88,57324	90,70996
23,42073	92	88,35254	90,31055
23,42875	95	88,12012	89,99707
23,43677	92	87,88184	89,76953
23,44479	82	87,64551	89,62793
23,4528	102	87,44141	89,60449
23,46082	94	87,2334	89,66309
23,46884	102	87,01465	89,80176
23,47686	83	86,79199	90,0293
23,48488	109	86,56348	90,35254
23,4929	93	86,33203	90,7832
23,50091	110	86,09863	91,33301
23,50893	101	85,84961	92,00098
23,51695	113	85,59375	92,80664
23,52497	119	85,33398	93,76758
23,53299	125	85,07129	94,90137
23,541	101	84,80566	96,22266
23,54902	126	84,53516	97,74512
23,55704	125	84,25879	99,48438
23,56506	109	83,97949	101,459
23,57308	121	83,68652	103,6729
23,58109	137	83,38672	106,1484
23,58911	120	83,08398	108,9023
23,59713	140	82,78027	111,9463
23,60515	132	82,47754	115,2939
23,61317	142	82,25684	119,0303
23,62119	150	82,0293	123,0723
23,6292	181	81,7998	127,4219
23,63722	163	81,56836	132,0771
23,64524	163	81,33789	137,0303
23,65326	183	81,1084	142,2695
23,66128	176	80,87988	147,7764
23,66929	197	80,63379	153,5098
23,67731	184	80,38086	159,4512
23,68533	206	80,12012	165,5664
23,69335	205	79,85547	171,8213
23,70137	207	79,59082	178,1777
23,70938	178	79,31836	184,5771
23,7174	201	79,04004	190,9727
23,72542	206	78,76172	197,3125
23,73344	220	78,47461	203,5313
23,74146	222	78,18359	209,5732
23,74948	219	77,89355	215,3828
23,75749	221	77,60645	220,9014
23,76551	222	77,31641	226,0625
23,77353	224	77,02734	230,8096
23,78155	209	76,7998	235,1504
23,78957	225	76,57129	238,9678
23,79758	204	76,32031	242,1973
23,8056	212	76,05859	244,8066
23,81362	224	75,79102	246,7666
23,82164	241	75,52148	248,0547
23,82966	199	75,24707	248,6475
23,83767	207	74,97168	248,5381
23,84569	187	74,69531	247,7246
23,85371	215	74,41895	246,2119
23,86173	176	74,14355	244,0156
23,86975	218	73,85059	241,1406
23,87776	199	73,5459	237,6211
23,88578	195	73,24121	233,5068
23,8938	199	72,9375	228,8418
23,90182	186	72,63379	223,6758
23,90984	183	72,29102	218,0225
23,91785	150	71,92871	211,959
23,92587	190	71,56738	205,5664
23,93389	166	71,36816	199,0674
23,94191	147	71,14941	192,3438
23,94993	149	70,87695	185,4229
23,95794	133	70,57813	178,3916
23,96596	159	70,2793	171,3359
23,97398	152	70,04785	164,3789
23,982	121	69,81641	157,5029
23,99002	149	69,55469	150,7256
23,99804	99	69,27832	144,1045
24,00605	117	69,00195	137,6914
24,01407	99	68,71777	131,5098
24,02209	90	68,42578	125,5869
24,03011	78	68,13477	119,9512
24,03813	102	67,83301	114,6074
24,04614	102	67,52637	109,5723
24,05416	92	67,21094	104,8477
24,06218	90	66,88184	100,4287
24,0702	90	66,5459	96,32129
24,07822	96	66,18945	92,50488
24,08624	76	65,82227	88,98242
24,09425	77	65,45605	85,75293
24,10227	64	65,15723	82,87012
24,11029	66	64,84473	80,23535
24,11831	62	64,50293	77,81934
24,12633	49	64,13086	75,60352
24,13434	63	63,74414	73,58691
24,14236	64	63,33105	71,73926
24,15038	66	62,90625	70,05859
24,1584	74	62,4834	68,54102
24,16642	63	62,39063	67,49902
24,17443	65	62,27734	66,56836
24,18245	70	62,1543	65,74219
24,19047	65	62,00781	64,99609
24,19849	84	61,84961	64,32715
24,20651	57	61,68555	63,73242
24,21453	49	61,51953	63,20313
24,22254	61	61,35254	62,7334
24,23056	68	61,19238	62,32031
24,23858	58	61,02148	61,94043
24,2466	69	60,8457	61,59375
24,25462	57	60,66309	61,27148
24,26263	63	60,47559	60,97266
24,27065	81	60,27832	60,68652
24,27867	61	60,0752	60,41602
24,28669	57	59,87012	60,16113
24,29471	59	59,65234	59,90918
24,30272	69	59,42871	59,66504
24,31074	57	59,19238	59,42285
24,31876	57	58,95117	59,18848
24,32678	63	58,70996	58,96875
24,3348	62	58,46875	58,76172
24,34282	67	58,2168	58,5625
24,35083	64	57,9668	58,38086
24,35885	61	57,70801	58,21191
24,36687	65	57,44238	58,05957
24,37489	75	57,16211	57,91992
24,38291	75	56,87402	57,80566
24,39092	56	56,58789	57,72949
24,39894	72	56,42871	57,82617
24,40696	81	56,25391	57,95703
24,41498	86	56,06348	58,13281
24,423	72	55,84863	58,35352
24,43102	83	55,62207	58,6416
24,43903	76	55,38672	59,01074
24,44705	88	55,14648	59,47949
24,45507	87	54,90723	60,06445
24,46309	105	54,72559	60,83984
24,47111	87	54,53906	61,75488
24,47912	98	54,34277	62,82324
24,48714	106	54,13379	64,05957
24,49516	107	53,91992	65,48633
24,50318	113	53,69922	67,12109
24,5112	87	53,47559	68,98438
24,51921	113	53,24512	71,08887
24,52723	103	53,01172	73,45508
24,53525	134	52,77637	76,09766
24,54327	123	52,54199	79,0332
24,55129	113	52,30664	82,27148
24,55931	132	52,07715	85,82617
24,56732	138	51,84082	89,68945
24,57534	133	51,59961	93,86621
24,58336	146	51,35352	98,35254
24,59138	166	51,10449	103,1445
24,5994	141	50,85352	108,2305
24,60741	132	50,60352	113,5957
24,61543	181	50,35254	119,2168
24,62345	171	50,10254	125,0654
24,63147	171	49,85254	131,1074
24,63949	168	49,60352	137,3057
24,6475	184	49,35449	143,6143
24,65552	186	49,10449	149,9844
24,66354	168	48,85547	156,3613
24,67156	219	48,60352	162,6875
24,67958	191	48,34961	168,9043
24,6876	209	48,09668	174,9492
24,69561	181	47,83496	180,7539
24,70363	215	47,57031	186,2588
24,71165	199	47,29785	191,3994
24,71967	212	47,02051	196,1211
24,72769	193	46,74512	200,3721
24,7357	225	46,50098	204,1328
24,74372	227	46,25	207,3193
24,75174	206	45,97656	209,8799
24,75976	230	45,69336	211,793
24,76778	238	45,41113	213,0479
24,77579	246	45,19336	213,6934
24,78381	226	44,9668	213,6514
24,79183	232	44,72461	212,917
24,79985	248	44,47363	211,5107
24,80787	250	44,22363	209,4629
24,81589	246	43,98633	206,8145
24,8239	250	43,74121	203,5811
24,83192	252	43,49219	199,8115
24,83994	221	43,24219	195,5557
24,84796	250	42,99121	190,8701
24,85598	242	42,74023	185,8135
24,86399	215	42,48535	180,4404
24,87201	234	42,22754	174,8135
24,88003	224	41,96777	168,998
24,88805	249	41,70801	163,0547
24,89607	215	41,44922	157,043
24,90409	238	41,17578	151,0029
24,9121	235	40,89648	144,9951
24,92012	198	40,61328	139,0693
24,92814	217	40,3291	133,2695
24,93616	190	40,0459	127,6348
24,94418	212	39,75879	122,1904
24,95219	205	39,46289	116,957
24,96021	199	39,16895	111,9629
24,96823	196	38,89355	107,2383
24,97625	202	38,6084	102,7637
24,98427	177	38,30957	98,53613
24,99228	174	38,00391	94,56152
25,0003	162	37,7002	90,84082
25,00832	176	37,50195	87,47168
25,01634	171	37,28809	84,31738
25,02436	173	37,06543	81,37207
25,03238	154	36,83398	78,61816
25,04039	154	36,59766	76,04492
25,04841	145	36,35938	73,63672
25,05643	127	36,12109	71,37793
25,06445	149	35,88281	69,25098
25,07247	123	35,6416	67,23828
25,08048	123	35,39844	65,32422
25,0885	131	35,15527	63,49805
25,09652	147	34,90918	61,74414
25,10454	116	34,66113	60,05469
25,11256	101	34,41211	58,41895
25,12057	125	34,16211	56,83105
25,12859	107	33,90918	55,28418
25,13661	101	33,64551	53,76563
25,14463	107	33,37695	52,2793
25,15265	111	33,10449	50,82422
25,16066	93	32,83105	49,40137
25,16868	106	32,55762	48,01367
25,1767	103	32,2793	46,65625
25,18472	87	31,99707	45,33398
25,19274	104	31,71777	44,05176
25,20075	87	31,4248	42,79883
25,20877	83	31,12598	41,58203
25,21679	90	30,82324	40,4082
25,22481	80	30,51953	39,28125
25,23283	68	30,21777	38,20605
25,24084	89	30,02344	37,28906
25,24886	70	29,82129	36,41699
25,25688	75	29,61426	35,59473
25,2649	75	29,40039	34,81934
25,27292	80	29,18262	34,0957
25,28094	103	28,96387	33,42773
25,28895	98	28,7334	32,80273
25,29697	80	28,49707	32,23047
25,30499	69	28,2627	31,71484
25,31301	86	28,04883	31,27539
25,32103	72	27,83203	30,89063
25,32904	86	27,60645	30,55371
25,33706	67	27,37793	30,26953
25,34508	72	27,14941	30,04297
25,3531	78	26,91797	29,87012
25,36112	74	26,68457	29,75293
25,36913	79	26,44238	29,68457
25,37715	67	26,19629	29,67188
25,38517	62	25,94824	29,71582
25,39319	75	25,69629	29,81348
25,40121	77	25,44141	29,96973
25,40923	71	25,18262	30,18164
25,41724	70	24,91504	30,44531
25,42526	56	24,64453	30,76465
25,43328	71	24,36816	31,13672
25,4413	59	24,08984	31,56543
25,44932	71	23,81055	32,0498
25,45733	85	23,5332	32,58789
25,46535	64	23,25684	33,17773
25,47337	72	22,98242	33,81738
25,48139	61	22,82715	34,61719
25,48941	58	22,66699	35,44922
25,49743	71	22,48828	36,29395
25,50544	60	22,29688	37,14844
25,51346	65	22,09863	38,01367
25,52148	64	21,88965	38,87598
25,5295	60	21,67578	39,73242
25,53752	61	21,46289	40,58008
25,54553	58	21,28027	41,4375
25,55355	67	21,09375	42,26172
25,56157	50	20,90039	43,03906
25,56959	38	20,7002	43,76074
25,57761	43	20,49805	44,41992
25,58562	57	20,29102	45,00586
25,59364	38	20,08105	45,5127
25,60166	53	19,86621	45,92969
25,60968	34	19,64844	46,25098
25,6177	37	19,42871	46,47363
25,62572	40	19,20313	46,58691
25,63373	45	18,97363	46,5918
25,64175	34	18,74707	46,49121
25,64977	38	18,50781	46,26953
25,65779	41	18,26367	45,93457
25,66581	42	18,01758	45,49219
25,67382	36	17,76953	44,94629
25,68184	38	17,52441	44,30469
25,68986	36	17,27246	43,56445
25,69788	33	17,00977	42,72949
25,7059	32	16,74902	41,82031
25,71391	34	16,63184	40,98535
25,72193	32	16,50293	40,07813
25,72995	25	16,35742	39,10547
25,73797	25	16,19434	38,07617
25,74599	24	16,02344	37,00684
25,75401	21	15,84375	35,9082
25,76202	20	15,66113	34,79492
25,77004	21	15,47852	33,67871
25,77806	17	15,32129	32,5918
25,78608	19	15,1582	31,51367
25,7941	19	14,99414	30,45215
25,80211	24	14,8291	29,41504
25,81013	20	14,66211	28,40723
25,81815	16	14,49023	27,42676
25,82617	17	14,31348	26,47949
25,83419	15	14,13281	25,56738
25,84221	14	13,94629	24,68945
25,85022	22	13,75781	23,85059
25,85824	11	13,56738	23,05078
25,86626	28	13,37598	22,29199
25,87428	17	13,18652	21,57129
25,8823	20	12,98633	20,87891
25,89031	14	12,78223	20,21777
25,89833	10	12,57715	19,58789
25,90635	8	12,37207	18,98828
25,91437	9	12,16895	18,41797
25,92239	12	11,9541	17,85938
25,9304	23	11,72559	17,31055
25,93842	10	11,49902	16,78418
25,94644	6	11,51074	16,51172
25,95446	17	11,50879	16,24023
25,96248	9	11,46582	15,94336
25,9705	10	11,4043	15,63672
25,97851	13	11,34277	15,3418
25,98653	8	11,32324	15,09668
25,99455	8	11,29785	14,85352
26,00257	12	11,27148	14,61816
26,01059	7	11,24512	14,3877
26,0186	18	11,20801	14,15332
26,02662	24	11,16602	13,91895
26,03464	15	11,12109	13,68848
26,04266	22	11,07422	13,46289
26,05068	19	11,02637	13,24219
26,05869	7	10,95703	13,00586
26,06671	12	10,87793	12,7666
26,07473	13	10,79883	12,53516
26,08275	20	10,79102	12,38086
26,09077	15	10,77246	12,22363
26,09879	12	10,74902	12,06836
26,1068	12	10,71875	11,91406
26,11482	14	10,67676	11,75684
26,12284	21	10,62891	11,60059
26,13086	14	10,57617	11,44727
26,13888	10	10,52246	11,29883
26,14689	13	10,46777	11,15918
26,15491	18	10,40625	11,01855
26,16293	16	10,33691	10,87793
26,17095	16	10,26855	10,74316
26,17897	19	10,2666	10,68262
26,18699	17	10,25586	10,61816
26,195	15	10,23633	10,55078
26,20302	15	10,20605	10,47852
26,21104	16	10,1709	10,40625
26,21906	12	10,13184	10,33301
26,22708	12	10,08984	10,26172
26,23509	9	10,04883	10,19531
26,24311	10	10,01953	10,14355
26,25113	16	9,983398	10,08789
26,25915	12	9,944336	10,03223
26,26717	16	9,904297	9,977539
26,27518	10	9,862305	9,923828
26,2832	18	9,821289	9,87207
26,29122	18	9,771484	9,814453
26,29924	15	9,71875	9,75293
26,30726	17	9,665039	9,693359
26,31527	21	9,62793	9,651367
26,32329	18	9,587891	9,606445
26,33131	21	9,545898	9,560547
26,33933	22	9,500977	9,512695
26,34735	20	9,454102	9,464844
26,35537	12	9,408203	9,416016
26,36338	16	9,358398	9,365234
26,3714	10	9,307617	9,3125
26,37942	31	9,256836	9,261719
26,38744	18	9,210938	9,214844
26,39546	14	9,158203	9,160156
26,40347	20	9,100586	9,102539
26,41149	20	9,041992	9,042969
26,41951	13	8,983398	8,984375
26,42753	10	8,969727	8,970703
26,43555	5	8,949219	8,950195
26,44356	18	8,925781	8,925781
26,45158	12	8,897461	8,897461
26,4596	13	8,866211	8,867188
26,46762	12	8,835938	8,835938
26,47564	12	8,804688	8,804688
26,48365	18	8,769531	8,769531
26,49167	19	8,734375	8,734375
26,49969	9	8,703125	8,703125
26,50771	13	8,671875	8,671875
26,51573	10	8,635742	8,635742
26,52374	11	8,597656	8,597656
26,53176	10	8,554688	8,554688
26,53978	14	8,509766	8,509766
26,5478	13	8,463867	8,463867
26,55582	9	8,414063	8,414063
26,56384	8	8,363281	8,363281
26,57185	12	8,305664	8,305664
26,57987	14	8,244141	8,244141
26,58789	7	8,182617	8,182617
26,59591	6	8,148438	8,148438
26,60393	6	8,107422	8,107422
26,61194	7	8,066406	8,066406
26,61996	10	8,011719	8,011719
26,62798	11	7,949219	7,949219
26,636	6	7,87793	7,87793
26,64402	6	7,803711	7,803711
26,65203	6	7,728516	7,728516
26,66005	8	7,765625	7,765625
26,66807	9	7,791992	7,791992
26,67609	13	7,817383	7,817383
26,68411	7	7,844727	7,844727
26,69213	9	7,862305	7,862305
26,70014	5	7,873047	7,873047
26,70816	9	7,881836	7,881836
26,71618	9	7,890625	7,890625
26,7242	10	7,923828	7,923828
26,73222	7	7,952148	7,952148
26,74023	10	7,977539	7,977539
26,74825	8	7,99707	7,99707
26,75627	6	8,012695	8,012695
26,76429	11	8,027344	8,027344
26,77231	9	8,041016	8,041016
26,78032	5	8,054688	8,054688
26,78834	6	8,079102	8,079102
26,79636	6	8,144531	8,144531
26,80438	12	8,207031	8,207031
26,8124	8	8,265625	8,265625
26,82042	10	8,320313	8,320313
26,82843	8	8,373047	8,373047
26,83645	7	8,423828	8,423828
26,84447	8	8,474609	8,474609
26,85249	15	8,525391	8,525391
26,86051	8	8,575195	8,575195
26,86852	11	8,623047	8,623047
26,87654	11	8,671875	8,671875
26,88456	6	8,72168	8,72168
26,89258	12	8,769531	8,769531
26,9006	11	8,814453	8,814453
26,90862	12	8,857422	8,857422
26,91663	14	8,900391	8,900391
26,92465	9	8,949219	8,949219
26,93267	9	8,998047	8,998047
26,94069	12	9,041016	9,041016
26,94871	14	9,083008	9,083008
26,95672	15	9,124023	9,124023
26,96474	14	9,163086	9,163086
26,97276	13	9,200195	9,200195
26,98078	10	9,235352	9,235352
26,9888	12	9,269531	9,269531
26,99681	16	9,304688	9,304688
27,00483	11	9,338867	9,338867
27,01285	9	9,366211	9,366211
27,02087	18	9,394531	9,394531
27,02889	11	9,462891	9,462891
27,03691	10	9,52832	9,52832
27,04492	18	9,584961	9,584961
27,05294	20	9,635742	9,635742
27,06096	17	9,686523	9,686523
27,06898	21	9,744141	9,744141
27,077	20	9,798828	9,798828
27,08501	14	9,854492	9,854492
27,09303	18	9,908203	9,908203
27,10105	18	9,960938	9,960938
27,10907	23	10,01172	10,01172
27,11709	14	10,06348	10,06348
27,1251	27	10,11426	10,11426
27,13312	13	10,16211	10,16211
27,14114	21	10,20898	10,20898
27,14916	28	10,25488	10,25488
27,15718	28	10,2998	10,2998
27,1652	15	10,3457	10,3457
27,17321	20	10,38867	10,38867
27,18123	29	10,42969	10,42969
27,18925	21	10,4707	10,4707
27,19727	27	10,51465	10,51465
27,20529	30	10,55566	10,55566
27,2133	21	10,5957	10,5957
27,22132	20	10,63574	10,63574
27,22934	23	10,67578	10,67578
27,23736	21	10,71484	10,71484
27,24538	29	10,74805	10,74805
27,2534	24	10,78125	10,78125
27,26141	31	10,83887	10,83887
27,26943	23	10,89746	10,89746
27,27745	20	10,95313	10,95313
27,28547	15	11,00684	11,00684
27,29349	30	11,06152	11,06152
27,3015	29	11,11816	11,11816
27,30952	22	11,17285	11,17285
27,31754	39	11,22754	11,22754
27,32556	22	11,28027	11,28027
27,33358	26	11,33203	11,33203
27,34159	21	11,38379	11,38379
27,34961	26	11,43457	11,43457
27,35763	29	11,48438	11,48438
27,36565	30	11,53223	11,53223
27,37367	30	11,58008	11,58008
27,38169	46	11,62793	11,62793
27,3897	23	11,6748	11,6748
27,39772	30	11,72168	11,72168
27,40574	32	11,7666	11,7666
27,41376	41	11,81055	11,81055
27,42178	36	11,85547	11,85547
27,42979	37	11,90137	11,90137
27,43781	35	11,94629	11,94629
27,44583	34	11,98926	11,98926
27,45385	22	12,03027	12,03027
27,46187	37	12,07227	12,07227
27,46988	27	12,12012	12,12012
27,4779	37	12,16797	12,16797
27,48592	28	12,20996	12,20996
27,49394	25	12,25	12,25
27,50196	31	12,29004	12,29004
27,50998	27	12,3457	12,3457
27,51799	33	12,39844	12,39844
27,52601	26	12,44629	12,44629
27,53403	21	12,49023	12,49023
27,54205	31	12,53516	12,53516
27,55007	22	12,58887	12,58887
27,55808	35	12,6416	12,6416
27,5661	24	12,68945	12,68945
27,57412	27	12,73633	12,73633
27,58214	27	12,78223	12,78223
27,59016	23	12,83496	12,83496
27,59817	24	12,88477	12,88477
27,60619	20	12,93359	12,93359
27,61421	24	12,98145	12,98145
27,62223	20	13,02832	13,02832
27,63025	26	13,07617	13,07617
27,63827	13	13,12109	13,12109
27,64628	13	13,16504	13,16504
27,6543	15	13,20898	13,20898
27,66232	13	13,25879	13,25879
27,67034	18	13,30859	13,30859
27,67836	22	13,35742	13,35742
27,68637	12	13,40625	13,40625
27,69439	16	13,45313	13,45313
27,70241	19	13,5	13,5
27,71043	10	13,5459	13,5459
27,71845	10	13,59082	13,59082
27,72646	15	13,63574	13,63574
27,73448	21	13,68066	13,68066
27,7425	15	13,72559	13,72559
27,75052	18	13,77148	13,77148
27,75854	16	13,81738	13,81738
27,76655	12	13,86328	13,86328
27,77457	15	13,90918	13,90918
27,78259	9	13,9541	13,9541
27,79061	18	13,99805	13,99805
27,79863	19	14,04004	14,04004
27,80664	11	14,08203	14,08203
27,81466	15	14,12402	14,12402
27,82268	12	14,16504	14,16504
27,8307	20	14,20313	14,20313
27,83872	15	14,24121	14,24121
27,84674	19	14,29688	14,29688
27,85475	14	14,35059	14,35059
27,86277	11	14,40039	14,40039
27,87079	19	14,44727	14,44727
27,87881	13	14,49512	14,49512
27,88683	12	14,54199	14,54199
27,89484	18	14,58984	14,58984
27,90286	16	14,63672	14,63672
27,91088	20	14,68359	14,68359
27,9189	22	14,72754	14,72754
27,92692	16	14,76855	14,76855
27,93493	22	14,81055	14,81055
27,94295	16	14,8623	14,8623
27,95097	21	14,91016	14,91016
27,95899	22	14,95801	14,95801
27,96701	23	15,00391	15,00391
27,97503	24	15,05078	15,05078
27,98304	24	15,09668	15,09668
27,99106	21	15,14063	15,14063
27,99908	22	15,18262	15,18262
28,0071	29	15,22559	15,22559
28,01512	27	15,27148	15,27148
28,02313	19	15,31348	15,31348
28,03115	24	15,35449	15,35449
28,03917	31	15,39746	15,39746
28,04719	25	15,44043	15,44043
28,05521	20	15,47461	15,47461
28,06322	29	15,50488	15,50488
28,07124	27	15,53516	15,53516
28,07926	21	15,59863	15,59863
28,08728	24	15,66016	15,66016
28,0953	21	15,71289	15,71289
28,10332	28	15,76172	15,76172
28,11133	28	15,81055	15,81055
28,11935	26	15,8584	15,8584
28,12737	32	15,90723	15,90723
28,13539	34	15,95313	15,95313
28,14341	35	15,99902	15,99902
28,15142	24	16,03906	16,03906
28,15944	23	16,07617	16,07617
28,16746	33	16,1123	16,1123
28,17548	23	16,17285	16,17285
28,1835	29	16,22754	16,22754
28,19151	31	16,28027	16,28027
28,19953	20	16,33203	16,33203
28,20755	35	16,38184	16,38184
28,21557	43	16,43164	16,43164
28,22359	26	16,47559	16,47559
28,23161	33	16,51758	16,51758
28,23962	25	16,55957	16,55957
28,24764	31	16,60547	16,60547
28,25566	23	16,64551	16,64551
28,26368	27	16,68555	16,68555
28,2717	30	16,72949	16,72949
28,27971	30	16,77441	16,77441
28,28773	23	16,80762	16,80762
28,29575	26	16,83496	16,83496
28,30377	28	16,86133	16,86133
28,31179	28	16,93164	16,93164
28,31981	35	17,00098	17,00098
28,32782	20	17,05762	17,05762
28,33584	27	17,1084	17,1084
28,34386	27	17,15918	17,15918
28,35188	26	17,20898	17,20898
28,3599	27	17,25977	17,25977
28,36791	22	17,30469	17,30469
28,37593	18	17,34766	17,34766
28,38395	31	17,38379	17,38379
28,39197	18	17,41699	17,41699
28,39999	23	17,4502	17,4502
28,408	23	17,51465	17,51465
28,41602	22	17,57422	17,57422
28,42404	28	17,63184	17,63184
28,43206	22	17,68848	17,68848
28,44008	16	17,74121	17,74121
28,4481	29	17,79199	17,79199
28,45611	22	17,83789	17,83789
28,46413	18	17,88184	17,88184
28,47215	25	17,92578	17,92578
28,48017	19	17,96973	17,96973
28,48819	23	18,00879	18,00879
28,4962	22	18,04883	18,04883
28,50422	20	18,09277	18,09277
28,51224	25	18,13672	18,13672
28,52026	18	18,1709	18,1709
28,52828	21	18,19727	18,19727
28,53629	14	18,22266	18,22266
28,54431	23	18,2959	18,2959
28,55233	23	18,36719	18,36719
28,56035	17	18,42188	18,42188
28,56837	18	18,46777	18,46777
28,57639	21	18,51465	18,51465
28,5844	19	18,57031	18,57031
28,59242	22	18,625	18,625
28,60044	17	18,6748	18,6748
28,60846	24	18,71973	18,71973
28,61648	26	18,75879	18,75879
28,62449	15	18,79492	18,79492
28,63251	25	18,83105	18,83105
28,64053	18	18,89355	18,89355
28,64855	13	18,94824	18,94824
28,65657	25	19	19
28,66459	17	19,04883	19,04883
28,6726	24	19,0957	19,0957
28,68062	21	19,14258	19,14258
28,68864	19	19,18359	19,18359
28,69666	23	19,22168	19,22168
28,70468	21	19,25977	19,25977
28,71269	21	19,29688	19,29688
28,72071	17	19,33203	19,33203
28,72873	18	19,36523	19,36523
28,73675	16	19,39844	19,39844
28,74477	19	19,43066	19,43066
28,75278	16	19,45605	19,45605
28,7608	28	19,47168	19,47168
28,76882	15	19,4873	19,4873
28,77684	24	19,56152	19,56152
28,78486	22	19,62891	19,62891
28,79288	15	19,68066	19,68066
28,80089	28	19,72559	19,72559
28,80891	22	19,76953	19,76953
28,81693	18	19,81934	19,81934
28,82495	21	19,86914	19,86914
28,83297	23	19,91211	19,91211
28,84098	26	19,95215	19,95215
28,849	24	19,99023	19,99023
28,85702	18	20,02637	20,02637
28,86504	29	20,06348	20,06348
28,87306	31	20,10645	20,10645
28,88107	26	20,14453	20,14453
28,88909	29	20,17969	20,17969
28,89711	23	20,21387	20,21387
28,90513	23	20,24609	20,24609
28,91315	28	20,2793	20,2793
28,92116	30	20,30762	20,30762
28,92918	38	20,33398	20,33398
28,9372	27	20,35938	20,35938
28,94522	32	20,39063	20,39063
28,95324	28	20,41895	20,41895
28,96126	25	20,44238	20,44238
28,96927	30	20,46191	20,46191
28,97729	36	20,47852	20,47852
28,98531	29	20,48535	20,48535
28,99333	31	20,48535	20,48535
29,00135	32	20,48535	20,48535
29,00936	25	20,55273	20,55273
29,01738	33	20,60938	20,60938
29,0254	39	20,65918	20,65918
29,03342	33	20,69824	20,69824
29,04144	25	20,73145	20,73145
29,04945	29	20,76074	20,76074
29,05747	22	20,79004	20,79004
29,06549	23	20,81836	20,81836
29,07351	28	20,85156	20,85156
29,08153	29	20,88477	20,88477
29,08954	32	20,91602	20,91602
29,09756	30	20,94141	20,94141
29,10558	40	20,96387	20,96387
29,1136	30	20,98242	20,9834
29,12162	36	20,99902	21
29,12963	29	21,01465	21,01563
29,13765	31	21,0293	21,03125
29,14567	29	21,04395	21,04688
29,15369	34	21,05273	21,05664
29,16171	26	21,05957	21,06445
29,16973	24	21,06543	21,07422
29,17774	29	21,08496	21,0957
29,18576	28	21,10254	21,11719
29,19378	25	21,1123	21,13086
29,2018	29	21,11621	21,13965
29,20982	31	21,11621	21,14648
29,21783	32	21,1084	21,14844
29,22585	31	21,09766	21,14941
29,23387	32	21,08691	21,15234
29,24189	35	21,13086	21,2168
29,24991	24	21,16699	21,27637
29,25793	22	21,19824	21,33691
29,26594	14	21,2207	21,39551
29,27396	31	21,23828	21,45801
29,28198	22	21,25293	21,5293
29,29	31	21,2666	21,6123
29,29802	31	21,28027	21,71191
29,30603	44	21,30078	21,83691
29,31405	37	21,31836	21,98242
29,32207	46	21,33105	22,15137
29,33009	33	21,33984	22,34961
29,33811	42	21,34668	22,58691
29,34612	58	21,35059	22,86719
29,35414	57	21,35254	23,20215
29,36216	39	21,35352	23,60156
29,37018	38	21,35254	24,07617
29,3782	44	21,34961	24,63867
29,38622	45	21,34277	25,30176
29,39423	53	21,33496	26,08496
29,40225	63	21,32617	27,00781
29,41027	79	21,32715	28,10059
29,41829	74	21,32715	29,37793
29,42631	77	21,32129	30,8584
29,43432	87	21,31152	32,57324
29,44234	96	21,29883	34,55566
29,45036	98	21,28125	36,83789
29,45838	100	21,2627	39,45898
29,4664	92	21,24414	42,46094
29,47441	125	21,25879	45,92188
29,48243	115	21,27148	49,84961
29,49045	138	21,2793	54,28809
29,49847	141	21,2832	59,29297
29,50649	153	21,28711	64,91797
29,51451	190	21,29004	71,2168
29,52252	176	21,29004	78,24316
29,53054	166	21,29004	86,05664
29,53856	184	21,29199	94,71582
29,54658	222	21,29199	104,2705
29,5546	240	21,28906	114,7764
29,56261	260	21,28418	126,2852
29,57063	281	21,27832	138,8457
29,57865	294	21,26953	152,501
29,58667	257	21,25781	167,29
29,59469	311	21,24512	183,2471
29,60271	350	21,23145	200,3955
29,61072	393	21,21582	218,751
29,61874	367	21,19824	238,3193
29,62676	412	21,17969	259,0947
29,63478	404	21,16016	281,0625
29,6428	438	21,13965	304,1885
29,65081	432	21,11816	328,4316
29,65883	469	21,09473	353,7305
29,66685	515	21,07031	380,0117
29,67487	485	21,04492	407,1865
29,68289	533	21,01855	435,1504
29,6909	556	20,99219	463,7832
29,69892	540	20,96582	492,9512
29,70694	598	20,93945	522,5039
29,71496	636	20,9248	552,292
29,72298	635	20,92578	582,1436
29,731	664	20,92285	611,8545
29,73901	680	20,91895	641,2314
29,74703	715	20,91016	670,0703
29,75505	742	20,89746	698,166
29,76307	732	20,88184	725,3086
29,77109	752	20,86328	751,291
29,7791	699	20,84473	775,9092
29,78712	753	20,83496	798,9688
29,79514	746	20,82129	820,2656
29,80316	759	20,80469	839,6162
29,81118	790	20,78516	856,8525
29,81919	780	20,76367	871,8193
29,82721	770	20,74219	884,3818
29,83523	749	20,71875	894,4238
29,84325	755	20,69531	901,8496
29,85127	768	20,66699	906,5859
29,85929	756	20,6377	908,585
29,8673	687	20,60742	907,8271
29,87532	737	20,5752	904,3145
29,88334	719	20,54297	898,0762
29,89136	676	20,50488	889,1611
29,89938	680	20,46484	877,6514
29,90739	683	20,42383	863,6494
29,91541	614	20,38184	847,2773
29,92343	656	20,33984	828,6807
29,93145	613	20,28711	808,0078
29,93947	592	20,22559	785,4385
29,94748	591	20,16309	761,1709
29,9555	588	20,1875	735,4902
29,96352	542	20,20117	708,5078
29,97154	505	20,20215	680,4346
29,97956	515	20,19141	651,4863
29,98758	471	20,17578	621,8828
29,99559	459	20,1543	591,833
30,00361	442	20,12793	561,5469
30,01163	422	20,10254	531,2227
30,01965	376	20,09668	501,0703
30,02767	353	20,08203	471,2354
30,03568	319	20,06348	441,8857
30,0437	320	20,04004	413,168
30,05172	288	20,01465	385,2178
30,05974	271	19,9873	358,1533
30,06776	239	19,95605	332,0732
30,07578	256	19,92383	307,0635
30,08379	228	19,88574	283,1895
30,09181	211	19,8457	260,5049
30,09983	196	19,80371	239,0498
30,10785	171	19,76172	218,8457
30,11587	141	19,71973	199,9053
30,12388	168	19,69043	182,2363
30,1319	151	19,65234	165,8027
30,13992	120	19,60742	150,5859
30,14794	113	19,56055	136,5537
30,15596	91	19,5127	123,6689
30,16397	107	19,43945	111,8613
30,17199	92	19,35352	101,0918
30,18001	86	19,26758	91,31738
30,18803	69	19,30859	82,60742
30,19605	59	19,33203	74,75781
30,20406	60	19,33887	67,70996
30,21208	62	19,32813	61,40137
30,2201	55	19,30859	55,7832
30,22812	49	19,28125	50,7959
30,23614	59	19,25	46,38867
30,24416	37	19,21875	42,51172
30,25217	45	19,22168	39,14844
30,26019	38	19,21191	36,20215
30,26821	34	19,19629	33,63379
30,27623	29	19,17383	31,40332
30,28425	23	19,14941	29,47363
30,29226	25	19,12207	27,81055
30,30028	30	19,0918	26,37988
30,3083	25	19,05957	25,1543
30,31632	26	19,01953	24,10156
30,32434	19	18,97559	23,19922
30,33235	27	18,93066	22,43066
30,34037	26	18,88379	21,77734
30,34839	13	18,83691	21,22266
30,35641	24	18,79785	20,76074
30,36443	22	18,75391	20,36523
30,37244	16	18,71094	20,03027
30,38046	19	18,66211	19,74219
30,38848	16	18,60938	19,49316
30,3965	17	18,54199	19,26563
30,40452	28	18,46777	19,05957
30,41253	20	18,39258	18,87793
30,42055	17	18,40039	18,79883
30,42857	22	18,40723	18,73633
30,43659	19	18,41406	18,6875
30,44461	9	18,42188	18,64941
30,45263	18	18,48438	18,67578
30,46064	21	18,51367	18,67578
30,46866	20	18,54199	18,68164
30,47668	20	18,73242	18,85352
30,4847	19	18,90527	19,01172
30,49272	16	19,0459	19,13965
30,50073	30	19,16797	19,25293
30,50875	14	19,28223	19,3584
30,51677	19	19,37891	19,44727
30,52479	23	19,46777	19,53027
30,53281	16	19,55664	19,61523
30,54082	19	19,70605	19,75977
30,54884	25	19,8457	19,89551
30,55686	20	19,94629	19,99316
30,56488	21	20,02832	20,07227
30,5729	29	20,11035	20,15137
30,58092	23	20,25293	20,29102
30,58893	17	20,38965	20,42383
30,59695	19	20,49414	20,52637
30,60497	21	20,58301	20,61328
30,61299	23	20,67188	20,7002
30,62101	11	20,89063	20,91699
30,62902	21	21,09766	21,12207
30,63704	28	21,30078	21,32324
30,64506	21	21,48633	21,50684
30,65308	19	21,66406	21,68262
30,6611	26	21,83008	21,84766
30,66912	24	21,99219	22,00781
30,67713	24	22,1543	22,16895
30,68515	28	22,34277	22,35547
30,69317	23	22,52246	22,53418
30,70119	28	22,69922	22,70898
30,70921	34	22,86816	22,87695
30,71722	30	23,0332	23,04102
30,72524	32	23,19727	23,2041
30,73326	28	23,36035	23,36719
30,74128	26	23,52148	23,52734
30,7493	28	23,67773	23,68262
30,75731	35	23,83105	23,83496
30,76533	27	23,98145	23,98535
30,77335	19	24,13184	24,13477
30,78137	36	24,28125	24,28418
30,78939	17	24,42773	24,42969
30,79741	37	24,56934	24,57129
30,80542	31	24,70898	24,71094
30,81344	36	24,84766	24,84961
30,82146	27	24,9873	24,98926
30,82948	35	25,10938	25,11035
30,8375	32	25,22168	25,22266
30,84551	27	25,33398	25,33496
30,85353	27	25,56055	25,56152
30,86155	27	25,77734	25,77734
30,86957	25	25,97461	25,97559
30,87759	32	26,15918	26,15918
30,8856	24	26,33789	26,33789
30,89362	35	26,50586	26,50586
30,90164	43	26,66992	26,66992
30,90966	35	26,83398	26,83398
30,91768	41	27,02344	27,02344
30,9257	24	27,21387	27,21387
30,93371	29	27,39648	27,39746
30,94173	31	27,57227	27,57324
30,94975	37	27,74316	27,74414
30,95777	30	27,91016	27,91113
30,96579	37	28,07227	28,07422
30,9738	24	28,22852	28,23047
30,98182	31	28,38281	28,38477
30,98984	36	28,5332	28,53613
30,99786	34	28,68164	28,68555
31,00588	31	28,82715	28,83301
31,0139	29	28,9707	28,97754
31,02191	28	29,1123	29,12207
31,02993	25	29,25488	29,26758
31,03795	23	29,39746	29,41309
31,04597	30	29,57227	29,59277
31,05399	35	29,73438	29,76074
31,062	33	29,88086	29,91406
31,07002	37	30,01758	30,05957
31,07804	26	30,14941	30,20215
31,08606	34	30,25391	30,32031
31,09408	31	30,34473	30,42871
31,10209	30	30,43652	30,54199
31,11011	39	30,68359	30,81543
31,11813	26	30,90918	31,07324
31,12615	38	31,12012	31,32715
31,13417	29	31,31543	31,57129
31,14219	31	31,50293	31,81836
31,1502	30	31,68359	32,07324
31,15822	29	31,8623	32,33984
31,16624	32	32,03809	32,62207
31,17426	33	32,20215	32,91504
31,18228	44	32,36133	33,22852
31,19029	35	32,51563	33,56641
31,19831	36	32,66699	33,93652
31,20633	39	32,81738	34,3457
31,21435	48	32,96094	34,79688
31,22237	42	33,10156	35,2998
31,23038	41	33,24219	35,86719
31,2384	51	33,38867	36,5127
31,24642	54	33,5332	37,24023
31,25444	39	33,6748	38,06152
31,26246	50	33,81445	38,99121
31,27048	59	33,95117	40,04004
31,27849	57	34,08594	41,22852
31,28651	58	34,21973	42,57324
31,29453	68	34,34668	44,08984
31,30255	68	34,4707	45,80176
31,31057	79	34,58984	47,73145
31,31858	65	34,70801	49,90625
31,3266	78	34,8252	52,35352
31,33462	83	34,94141	55,10254
31,34264	88	35,05371	58,17871
31,35066	82	35,16406	61,61914
31,35868	85	35,27246	65,45605
31,36669	110	35,37793	69,72461
31,37471	118	35,47949	74,46191
31,38273	137	35,57617	79,70508
31,39075	126	35,66992	85,49805
31,39877	147	35,76172	91,88086
31,40678	126	35,85059	98,89844
31,4148	152	35,9375	106,5928
31,42282	163	36,02051	115,0078
31,43084	169	36,10156	124,1885
31,43886	171	36,17871	134,1768
31,44687	176	36,25	145,0156
31,45489	189	36,31641	156,748
31,46291	203	36,38086	169,418
31,47093	207	36,44043	183,0625
31,47895	214	36,49707	197,7207
31,48696	236	36,5498	213,4258
31,49498	250	36,59961	230,209
31,503	285	36,64844	248,1045
31,51102	283	36,69434	267,1221
31,51904	303	36,7373	287,2832
31,52705	312	36,7793	308,5967
31,53507	359	36,81641	331,0635
31,54309	392	36,85156	354,6797
31,55111	383	36,88379	379,4326
31,55913	407	36,91504	405,2988
31,56715	418	36,94336	432,2441
31,57516	413	36,96973	460,2246
31,58318	493	36,99219	489,1836
31,5912	534	37,01172	519,0557
31,59922	537	37,02832	549,7607
31,60724	518	37,04102	581,2061
31,61525	601	37,04883	613,2871
31,62327	600	37,05469	645,8877
31,63129	680	37,05762	678,8779
31,63931	606	37,05762	712,1172
31,64733	697	37,05566	745,4531
31,65534	742	37,0498	778,7197
31,66336	746	37,04004	811,7461
31,67138	758	37,02637	844,3486
31,6794	802	37,00684	876,3398
31,68742	812	36,98242	907,5313
31,69543	834	36,9541	937,7275
31,70345	828	36,9209	966,7363
31,71147	889	36,88477	994,3701
31,71949	962	36,84668	1020,442
31,72751	983	36,80469	1044,775
31,73553	970	36,75977	1067,205
31,74354	990	36,71289	1087,581
31,75156	944	36,66211	1105,768
31,75958	1038	36,60938	1121,652
31,7676	977	36,55176	1135,141
31,77562	1052	36,49121	1146,169
31,78363	1103	36,42773	1154,698
31,79165	1143	36,36328	1160,721
31,79967	1127	36,29688	1164,258
31,80769	1083	36,22852	1165,362
31,81571	1096	36,15918	1164,123
31,82372	1099	36,08691	1160,656
31,83174	1044	36,01172	1155,114
31,83976	1083	35,93262	1147,679
31,84778	1137	35,85059	1138,563
31,8558	1062	35,76563	1128,011
31,86382	1068	35,67773	1116,289
31,87183	1108	35,58887	1103,686
31,87985	1116	35,49805	1090,512
31,88787	1102	35,40527	1077,086
31,89589	1073	35,30762	1063,741
31,90391	1032	35,20801	1050,818
31,91192	1015	35,10645	1038,654
31,91994	1011	34,99805	1027,582
31,92796	1068	34,88672	1017,93
31,93598	1019	34,77051	1010,004
31,944	998	34,65234	1004,097
31,95201	1065	34,53418	1000,475
31,96003	1053	34,41113	999,3672
31,96805	1090	34,28711	1000,977
31,97607	994	34,16016	1005,461
31,98409	1041	34,03125	1012,94
31,99211	1033	33,90234	1023,49
32,00013	1124	33,76465	1037,126
32,00814	1109	33,62402	1053,83
32,01616	1169	33,47949	1073,528
32,02418	1138	33,33301	1096,098
32,0322	1166	33,1875	1121,366
32,04021	1192	33,04004	1149,11
32,04823	1203	32,8877	1179,057
32,05625	1240	32,73535	1210,902
32,06427	1233	32,58984	1244,301
32,07229	1342	32,44434	1278,861
32,08031	1348	32,28711	1314,158
32,08832	1396	32,12402	1349,76
32,09634	1372	31,96191	1385,216
32,10436	1510	31,80859	1420,065
32,11238	1514	31,65234	1453,83
32,1204	1525	31,49219	1486,036
32,12841	1567	31,32715	1516,227
32,13643	1575	31,16016	1543,961
32,14445	1627	30,98828	1568,816
32,15247	1518	30,8125	1590,408
32,16049	1620	30,63867	1608,386
32,1685	1595	30,46582	1622,436
32,17652	1634	30,28906	1632,286
32,18454	1653	30,11328	1637,723
32,19256	1608	29,94043	1638,58
32,20058	1578	29,76465	1634,742
32,2086	1640	29,58496	1626,149
32,21661	1552	29,40234	1612,801
32,22463	1551	29,21777	1594,753
32,23265	1675	29,02734	1572,106
32,24067	1576	28,83398	1545,021
32,24869	1545	28,6416	1513,706
32,2567	1467	28,4502	1478,409
32,26472	1471	28,25879	1439,417
32,27274	1411	28,06641	1397,047
32,28076	1361	27,87402	1351,65
32,28878	1309	27,6709	1303,587
32,29679	1237	27,46387	1253,251
32,30481	1267	27,25684	1201,044
32,31283	1178	27,05762	1147,375
32,32085	1059	26,85742	1092,641
32,32887	1104	26,63184	1037,205
32,33688	1010	26,39355	981,4678
32,3449	922	26,15625	925,8086
32,35292	909	26,02051	870,6738
32,36094	841	25,86914	816,2715
32,36896	825	25,69629	762,8887
32,37698	788	25,5127	710,8057
32,38499	722	25,3291	660,2705
32,39301	618	25,14746	611,4902
32,40103	615	24,96289	564,6357
32,40905	538	24,7793	519,8516
32,41706	525	24,59961	477,2539
32,42508	442	24,40918	436,9072
32,4331	390	24,21387	398,873
32,44112	413	24,01563	363,1797
32,44914	357	23,81738	329,8301
32,45716	320	23,61914	298,8057
32,46518	296	23,41602	270,0605
32,47319	296	23,20996	243,5391
32,48121	261	23,00293	219,1729
32,48923	245	22,79688	196,876
32,49725	186	22,59082	176,5547
32,50526	192	22,38672	158,1074
32,51328	166	22,18262	141,4219
32,5213	151	21,96875	126,3838
32,52932	127	21,74805	112,8779
32,53734	114	21,52539	100,7969
32,54536	119	21,2998	90,02637
32,55338	115	21,07227	80,45996
32,56139	86	20,82031	71,9668
32,56941	60	20,55664	64,45996
32,57743	78	20,29492	57,85449
32,58545	68	20,2002	52,22754
32,59346	58	20,0791	47,29688
32,60148	47	19,94141	42,99609
32,6095	56	19,79297	39,25586
32,61752	45	19,63965	36,0166
32,62554	42	19,48438	33,21777
32,63356	42	19,32715	30,80566
32,64157	26	19,16992	28,73242
32,64959	25	19,0127	26,95313
32,65761	21	18,84961	25,41992
32,66563	32	18,68164	24,10059
32,67365	24	18,51074	22,96582
32,68166	31	18,33789	21,98828
32,68968	24	18,16504	21,14551
32,6977	35	17,98535	20,41113
32,70572	22	17,80273	19,77051
32,71374	15	17,61816	19,20898
32,72176	28	17,43359	18,71582
32,72977	25	17,24902	18,2793
32,73779	22	17,06543	17,88965
32,74581	13	16,88281	17,54102
32,75383	24	16,69434	17,2168
32,76184	22	16,49512	16,90918
32,76986	15	16,29199	16,61914
32,77788	20	16,08691	16,34375
32,7859	16	15,87988	16,08203
32,79392	17	15,65137	15,80957
32,80194	16	15,41309	15,53613
32,80996	14	15,17676	15,27246
32,81797	0	0	0
